Data from carapace2_Reflection_09-01-59-454.txt Node
Date: Wed Dec 06 09:01:59 AEST 2023
User: uqkchene_local
Spectrometer: USB4E02642
Trigger mode: 4
Integration Time (sec): 1.700000E-2
Scans to average: 10
Electric dark correction enabled: true
Nonlinearity correction enabled: false
Boxcar width: 10
XAxis mode: Wavelengths
Number of Pixels in Spectrum: 3648
>>>>>Begin Spectral Data<<<<<
179.217	-5.47709266
179.432	-46.96356275
179.647	-11.2895133
179.862	-53.2210109
180.077	-170.4
180.293	5.92105263
180.508	-390.6122449
180.723	-90.0621118
180.938	81.42470694
181.153	32.83815481
181.368	34.12777226
181.583	27.77907793
181.798	29.10324592
182.013	29.12723449
182.228	31.64826394
182.443	32.02442236
182.658	35.28000834
182.873	34.0807601
183.088	35.12469561
183.303	34.93637286
183.518	37.9224549
183.733	35.27580955
183.948	34.04734376
184.162	37.46253746
184.377	39.48763744
184.592	41.90429097
184.807	42.68896182
185.022	41.30554032
185.237	41.50157844
185.452	44.92161478
185.667	46.95065485
185.882	48.98946512
186.096	48.77739381
186.311	50.11085471
186.526	51.54567719
186.741	51.02477111
186.956	50.78778812
187.17	52.51224034
187.385	50.19303179
187.6	50.17370199
187.815	50.18297609
188.03	51.81524517
188.244	49.82917088
188.459	49.18589208
188.674	51.12792898
188.889	46.93837848
189.103	47.24989173
189.318	47.55641835
189.533	47.77509486
189.747	47.46471254
189.962	43.62635728
190.177	42.06253601
190.391	39.57412207
190.606	39.31538014
190.821	37.71978437
191.035	34.41522665
191.25	34.72766021
191.465	33.45383341
191.679	28.64352347
191.894	31.24469943
192.109	31.42150803
192.323	32.69110351
192.538	32.19265491
192.752	35.72677028
192.967	36.94318235
193.181	34.40896575
193.396	36.69526868
193.611	36.72564306
193.825	34.87597353
194.04	35.12272011
194.254	34.61904115
194.469	36.04206931
194.683	37.78373471
194.898	39.39313164
195.112	45.6379048
195.327	45.41716942
195.541	48.14491869
195.756	47.49794203
195.97	47.31052873
196.184	48.80770973
196.399	48.3937482
196.613	49.17491749
196.828	48.72725738
197.042	49.67917393
197.257	49.16768511
197.471	46.44817904
197.685	47.13544857
197.9	44.63295137
198.114	43.2698143
198.328	43.64631787
198.543	44.41455238
198.757	41.61837486
198.971	42.72332746
199.186	42.41919645
199.4	42.00041938
199.614	36.26279498
199.829	37.35653771
200.043	39.01296979
200.257	39.05957677
200.471	39.18351774
200.686	42.19561874
200.9	41.1274197
201.114	40.92105796
201.328	39.8064439
201.543	39.35265428
201.757	39.24162612
201.971	41.71655104
202.185	41.05884668
202.399	42.57029657
202.614	43.51073398
202.828	44.06071524
203.042	42.42711453
203.256	45.15540666
203.47	44.70767063
203.684	44.86839717
203.899	44.20658183
204.113	45.0159475
204.327	45.07482443
204.541	43.79319362
204.755	44.68563716
204.969	46.28769864
205.183	45.83851869
205.397	47.17657823
205.611	46.42576591
205.825	47.86861258
206.039	45.46955315
206.253	44.44403977
206.467	43.62974136
206.681	42.9402452
206.895	42.81565327
207.109	43.3002343
207.323	41.81445335
207.537	43.1808894
207.751	42.44149273
207.965	40.27854742
208.179	40.66960419
208.393	39.99474494
208.607	40.83728573
208.821	41.90031734
209.035	40.69398274
209.249	41.49091045
209.463	39.22504719
209.677	38.2981086
209.891	38.30544011
210.104	38.85095628
210.318	39.53382604
210.532	40.29406149
210.746	40.20357242
210.96	41.00371021
211.174	42.42902816
211.387	43.57364311
211.601	41.7620548
211.815	44.11570312
212.029	42.76384033
212.243	44.13376977
212.456	46.25809785
212.67	44.612286
212.884	44.95534496
213.098	44.52153017
213.311	42.12657642
213.525	42.39622712
213.739	41.67645165
213.953	41.25427423
214.166	41.80592093
214.38	42.6227666
214.594	41.06465336
214.807	41.95561984
215.021	41.38024357
215.235	42.63881046
215.448	41.95048239
215.662	42.10965104
215.876	39.66899712
216.089	40.3667931
216.303	40.17825312
216.516	42.87457793
216.73	42.84016637
216.944	41.26023496
217.157	40.20048393
217.371	40.71802833
217.584	39.49147851
217.798	40.67374906
218.011	39.90598815
218.225	41.30529657
218.439	41.33859854
218.652	41.17551087
218.866	40.34694123
219.079	43.34593352
219.293	40.73474423
219.506	41.40800122
219.719	39.61171794
219.933	39.21016045
220.146	37.23193973
220.36	39.19506485
220.573	40.64819304
220.787	40.50806601
221	37.66146243
221.214	35.88683682
221.427	35.21891617
221.64	36.98904057
221.854	35.43698753
222.067	38.11035063
222.28	37.20830574
222.494	40.20793878
222.707	35.85142723
222.92	37.38855224
223.134	35.55269019
223.347	34.35317073
223.56	31.2566205
223.774	32.24199838
223.987	30.65342353
224.2	30.25400485
224.414	32.73792911
224.627	35.04513541
224.84	35.22517932
225.053	35.47562817
225.267	34.89051095
225.48	35.71564922
225.693	36.23899989
225.906	38.78047853
226.119	39.17450566
226.333	42.11094967
226.546	40.86408307
226.759	42.03557384
226.972	40.29621503
227.185	41.67858321
227.398	43.338219
227.612	44.20219812
227.825	45.15118448
228.038	46.48301966
228.251	47.77649487
228.464	49.55773368
228.677	52.2383092
228.89	51.96395795
229.103	51.31687107
229.316	51.76482285
229.529	50.70183043
229.743	51.55483892
229.956	51.21096977
230.169	52.94696448
230.382	53.67327606
230.595	52.31053604
230.808	51.06818258
231.021	51.78076568
231.234	53.09719193
231.447	54.17213197
231.66	54.66241149
231.872	54.55380533
232.085	53.79576239
232.298	53.60340274
232.511	53.42766111
232.724	51.93311722
232.937	51.67296557
233.15	51.12478094
233.363	48.87542946
233.576	48.14349087
233.789	46.96409064
234.002	46.31922281
234.214	44.34812881
234.427	44.91528409
234.64	45.36034917
234.853	44.37555994
235.066	45.61961611
235.279	47.29296619
235.491	47.21723519
235.704	46.90816566
235.917	44.82506562
236.13	43.61154472
236.342	41.48160591
236.555	43.97021493
236.768	44.85022847
236.981	45.32359573
237.193	46.21922134
237.406	46.35428957
237.619	44.77863251
237.832	44.98093599
238.044	47.01052703
238.257	47.25085318
238.47	46.89839753
238.682	47.64181331
238.895	49.57232919
239.108	47.44292082
239.32	47.98480621
239.533	47.88231709
239.746	45.88671727
239.958	44.43465699
240.171	43.50294292
240.383	45.68013104
240.596	45.93179518
240.808	47.04250437
241.021	45.61709121
241.234	43.93145493
241.446	42.93086693
241.659	40.55106219
241.871	39.55552612
242.084	39.06244867
242.296	38.1692794
242.509	37.46212967
242.721	37.0474571
242.934	38.87815539
243.146	38.7007536
243.359	35.68913561
243.571	36.81977904
243.784	35.83132142
243.996	34.82099544
244.208	35.46735785
244.421	35.42179752
244.633	35.09719572
244.846	32.2705534
245.058	33.94489528
245.27	33.45151793
245.483	31.41493084
245.695	29.76342816
245.907	31.34385462
246.12	32.6725709
246.332	33.23502068
246.544	33.93751795
246.757	34.92037752
246.969	34.41110057
247.181	34.08424105
247.394	33.78695608
247.606	34.3344521
247.818	36.2427408
248.03	35.36100646
248.243	35.25713697
248.455	36.83751217
248.667	35.70229987
248.879	37.12118818
249.092	36.47912886
249.304	37.45369598
249.516	36.59979165
249.728	37.25690542
249.94	38.84733832
250.153	41.0693361
250.365	40.04723924
250.577	39.70251325
250.789	39.53842428
251.001	38.11862486
251.213	37.80086227
251.425	35.29432026
251.637	36.09857099
251.85	33.71651306
252.062	32.93714286
252.274	31.24735178
252.486	32.50280944
252.698	31.57154906
252.91	31.17641428
253.122	31.9443117
253.334	30.12063864
253.546	31.25060017
253.758	32.19695751
253.97	33.27708732
254.182	32.23225475
254.394	31.3523465
254.606	31.08577739
254.818	32.51280729
255.03	34.04569144
255.242	33.45053228
255.454	34.88326013
255.666	35.56397168
255.877	38.49417447
256.089	39.5024683
256.301	40.46780285
256.513	42.65883609
256.725	43.78825064
256.937	45.06813033
257.149	47.96198655
257.361	46.09075316
257.572	45.59147334
257.784	45.62943069
257.996	44.31249016
258.208	44.43860679
258.42	41.29518536
258.631	41.88135859
258.843	42.42433707
259.055	43.67552272
259.267	42.23685437
259.479	40.54899997
259.69	41.73991366
259.902	42.23646504
260.114	41.58195978
260.325	40.49437362
260.537	38.08599344
260.749	38.10607274
260.961	37.83792309
261.172	38.51939953
261.384	37.42964058
261.596	35.24969225
261.807	36.03364172
262.019	36.99234549
262.23	36.07726699
262.442	36.17976
262.654	31.394203
262.865	34.74488258
263.077	33.86127982
263.288	35.45343582
263.5	32.92869962
263.712	33.88923542
263.923	34.23786583
264.135	34.52048494
264.346	34.69806883
264.558	35.03091061
264.769	35.37317891
264.981	38.2223526
265.192	37.44110185
265.404	36.94708591
265.615	36.50156327
265.827	34.23900376
266.038	35.06775068
266.25	35.40229167
266.461	34.8782875
266.673	38.46965045
266.884	38.8540203
267.095	42.69694954
267.307	42.66296544
267.518	44.27876514
267.73	43.06700452
267.941	44.31447139
268.152	42.94913877
268.364	43.45711092
268.575	42.56922379
268.786	41.73620172
268.998	41.58371447
269.209	40.72268857
269.42	39.67674185
269.632	40.81824523
269.843	39.76039288
270.054	39.25368995
270.265	39.44514424
270.477	39.93283514
270.688	38.74221936
270.899	41.17933575
271.11	38.34077266
271.322	39.35729413
271.533	38.91909955
271.744	38.29116773
271.955	35.93239304
272.166	35.60643528
272.378	35.33620306
272.589	35.42210618
272.8	35.49189025
273.011	37.14421393
273.222	37.23968362
273.433	38.44834216
273.644	39.70766278
273.856	38.57188489
274.067	39.25977371
274.278	39.70070674
274.489	39.6946786
274.7	40.82870279
274.911	40.9738211
275.122	43.5956854
275.333	41.84828335
275.544	42.26487317
275.755	41.62101494
275.966	41.37847772
276.177	39.53032736
276.388	40.89055707
276.599	40.63520821
276.81	39.82413099
277.021	39.97859319
277.232	39.5551917
277.443	38.22797275
277.654	38.92604728
277.865	38.14732571
278.076	36.22841892
278.287	37.45622277
278.497	36.22751939
278.708	36.6432263
278.919	35.36809383
279.13	34.25697806
279.341	32.26175461
279.552	29.97675752
279.763	28.53623673
279.973	27.98155396
280.184	27.54655479
280.395	29.30776234
280.606	30.7663137
280.817	31.09528859
281.027	32.22017166
281.238	33.57144915
281.449	35.16156094
281.66	33.49703294
281.87	33.26283012
282.081	32.2883452
282.292	32.652054
282.503	33.42706898
282.713	33.87719346
282.924	34.00425779
283.135	33.02018188
283.345	34.12730783
283.556	35.21474368
283.767	35.90307786
283.977	36.46427726
284.188	37.02436825
284.399	39.11033463
284.609	39.08901459
284.82	38.6969152
285.03	39.3039213
285.241	38.18679065
285.451	39.37598627
285.662	39.05503548
285.873	37.59384023
286.083	39.46179748
286.294	39.69442533
286.504	39.96364722
286.715	39.13043478
286.925	40.03973762
287.136	39.67574685
287.346	39.44045022
287.557	40.57823783
287.767	40.82211393
287.978	40.81010335
288.188	41.61075663
288.399	41.8320733
288.609	40.66373661
288.819	38.64356972
289.03	38.35710472
289.24	36.21371201
289.451	37.17243929
289.661	37.44603883
289.871	36.26457839
290.082	36.63305256
290.292	35.12530411
290.502	35.01481635
290.713	34.51993992
290.923	33.60839378
291.133	34.60284561
291.344	33.76536984
291.554	33.10222408
291.764	33.18805123
291.974	33.1801161
292.185	32.29217001
292.395	29.97762436
292.605	30.88394844
292.815	29.64132518
293.026	29.77248837
293.236	30.03497046
293.446	29.21074044
293.656	29.61818268
293.866	28.09075119
294.077	27.15059716
294.287	26.47062984
294.497	26.03990759
294.707	26.62321927
294.917	25.89775061
295.127	25.04059532
295.337	24.63713645
295.548	23.82183274
295.758	23.90571058
295.968	23.29790939
296.178	23.07911288
296.388	22.37661956
296.598	21.95696697
296.808	21.8845782
297.018	20.52189139
297.228	20.35362641
297.438	20.17315581
297.648	19.8188036
297.858	19.9394726
298.068	19.40927586
298.278	18.97646064
298.488	19.08442589
298.698	18.78211071
298.908	18.36336603
299.118	18.2051652
299.328	17.86554589
299.538	17.95314104
299.748	17.84078308
299.957	17.79793662
300.167	17.42710483
300.377	17.31256181
300.587	16.93684798
300.797	16.63454861
301.007	16.70522093
301.217	16.81655428
301.426	16.83821595
301.636	16.7448253
301.846	16.64228068
302.056	16.65139209
302.266	16.44873733
302.475	16.44529011
302.685	16.57171158
302.895	16.39542632
303.105	16.42677213
303.314	16.36862431
303.524	16.3091024
303.734	16.34549265
303.944	16.1943958
304.153	16.12825885
304.363	16.0453321
304.573	15.9834884
304.782	15.92733818
304.992	15.95410986
305.202	15.96457288
305.411	15.88721009
305.621	15.78280682
305.831	15.69154539
306.04	15.65836841
306.25	15.66668404
306.459	15.52755761
306.669	15.51640724
306.878	15.52273914
307.088	15.36358007
307.298	15.34011228
307.507	15.22717594
307.717	15.21222682
307.926	15.11921221
308.136	15.07415875
308.345	15.106482
308.555	15.11122799
308.764	15.07799256
308.974	15.02136623
309.183	14.9883941
309.392	14.97846606
309.602	14.97928175
309.811	14.99000269
310.021	14.90334423
310.23	14.91972248
310.44	14.91605643
310.649	14.88251991
310.858	14.89589491
311.068	14.87430898
311.277	14.83221892
311.486	14.8565496
311.696	14.79710114
311.905	14.82487918
312.114	14.83100736
312.324	14.83323726
312.533	14.82151421
312.742	14.7901766
312.952	14.75363932
313.161	14.72120713
313.37	14.73330792
313.579	14.76514111
313.789	14.75655953
313.998	14.73278846
314.207	14.72596755
314.416	14.75963859
314.625	14.72480437
314.835	14.69449709
315.044	14.681096
315.253	14.68011771
315.462	14.65618958
315.671	14.6602963
315.88	14.66476782
316.09	14.683064
316.299	14.67841973
316.508	14.64477285
316.717	14.64971346
316.926	14.63398696
317.135	14.60303822
317.344	14.60382143
317.553	14.60738486
317.762	14.60837282
317.971	14.58670471
318.18	14.57081606
318.389	14.57309641
318.598	14.54557288
318.807	14.54555704
319.016	14.54900214
319.225	14.54875528
319.434	14.53966989
319.643	14.51753574
319.852	14.53924014
320.061	14.51398419
320.27	14.49432368
320.479	14.50799464
320.688	14.49661094
320.897	14.51154451
321.105	14.50785978
321.314	14.51502402
321.523	14.54806987
321.732	14.58088025
321.941	14.58382552
322.15	14.58141141
322.359	14.58682507
322.567	14.59601702
322.776	14.59461386
322.985	14.6199332
323.194	14.63869964
323.403	14.64486799
323.611	14.64595201
323.82	14.65859855
324.029	14.68238076
324.237	14.68479669
324.446	14.71765366
324.655	14.73803661
324.864	14.74988909
325.072	14.75440768
325.281	14.77188431
325.49	14.782476
325.698	14.79696222
325.907	14.80222121
326.116	14.79040934
326.324	14.79780741
326.533	14.82066078
326.741	14.82926427
326.95	14.84207883
327.159	14.85755014
327.367	14.8651803
327.576	14.86461914
327.784	14.8840267
327.993	14.91376001
328.201	14.91658416
328.41	14.92407372
328.618	14.95983196
328.827	14.96597649
329.035	14.98610415
329.244	15.00121169
329.452	15.02401218
329.661	15.01845478
329.869	15.01991546
330.078	15.02160715
330.286	15.05246803
330.495	15.06195216
330.703	15.08878147
330.911	15.10207424
331.12	15.11571239
331.328	15.12748403
331.537	15.12717212
331.745	15.15714971
331.953	15.16907035
332.162	15.1848782
332.37	15.21184018
332.578	15.24085664
332.787	15.26991195
332.995	15.27065857
333.203	15.29165938
333.411	15.30157311
333.62	15.3130401
333.828	15.32046126
334.036	15.34349803
334.244	15.38426866
334.453	15.39498574
334.661	15.40561263
334.869	15.4295206
335.077	15.44570516
335.285	15.45238209
335.494	15.48587898
335.702	15.50219913
335.91	15.52391847
336.118	15.52924194
336.326	15.56014683
336.534	15.58946142
336.742	15.57633504
336.951	15.5965813
337.159	15.58289524
337.367	15.59569547
337.575	15.62558123
337.783	15.64388414
337.991	15.64878432
338.199	15.66450696
338.407	15.6985464
338.615	15.70566454
338.823	15.73256488
339.031	15.72728255
339.239	15.74535241
339.447	15.76248552
339.655	15.78900555
339.863	15.79519
340.071	15.82297954
340.279	15.86345701
340.487	15.86882352
340.695	15.87421344
340.903	15.87383822
341.11	15.9016275
341.318	15.91358447
341.526	15.94918125
341.734	15.96932932
341.942	15.96220891
342.15	15.97083312
342.358	15.98703426
342.565	16.02438477
342.773	16.02622192
342.981	16.05509803
343.189	16.07710617
343.397	16.10703328
343.604	16.12676427
343.812	16.14118337
344.02	16.1581502
344.228	16.17509502
344.435	16.17908939
344.643	16.16746583
344.851	16.18107111
345.058	16.21264017
345.266	16.22952605
345.474	16.25385831
345.681	16.26229507
345.889	16.27732114
346.097	16.288948
346.304	16.3053586
346.512	16.32190599
346.72	16.3448779
346.927	16.3472582
347.135	16.3625371
347.342	16.36119962
347.55	16.37697516
347.758	16.39366484
347.965	16.40566026
348.173	16.42029648
348.38	16.43082472
348.588	16.44525764
348.795	16.47185121
349.003	16.48655562
349.21	16.48389186
349.418	16.49588864
349.625	16.51850146
349.833	16.53783094
350.04	16.56195915
350.247	16.56814092
350.455	16.58931757
350.662	16.59458422
350.87	16.61355257
351.077	16.62364777
351.284	16.63968722
351.492	16.64414071
351.699	16.66514923
351.906	16.67847173
352.114	16.67905481
352.321	16.70473286
352.528	16.72256659
352.736	16.7430919
352.943	16.74025594
353.15	16.74486258
353.358	16.7624927
353.565	16.79480184
353.772	16.79182649
353.979	16.81195444
354.187	16.80080287
354.394	16.81240568
354.601	16.8365609
354.808	16.84384502
355.015	16.85576703
355.223	16.86152652
355.43	16.86970225
355.637	16.87799271
355.844	16.90987601
356.051	16.92036638
356.258	16.94262407
356.465	16.94626563
356.673	16.93703304
356.88	16.93797138
357.087	16.95130162
357.294	16.97329773
357.501	16.9839399
357.708	16.99352161
357.915	17.01004439
358.122	17.01580683
358.329	17.01905741
358.536	17.03349354
358.743	17.04603315
358.95	17.06130748
359.157	17.05826264
359.364	17.07433099
359.571	17.10587272
359.778	17.12993636
359.985	17.14864658
360.192	17.14250921
360.399	17.15388048
360.606	17.15473367
360.812	17.17051509
361.019	17.18181361
361.226	17.19934131
361.433	17.20315199
361.64	17.20538805
361.847	17.2132705
362.054	17.22482969
362.26	17.23563447
362.467	17.25689285
362.674	17.26665833
362.881	17.2874606
363.088	17.28863604
363.294	17.28482093
363.501	17.30244278
363.708	17.31186072
363.915	17.31233877
364.121	17.32380336
364.328	17.338528
364.535	17.35325955
364.741	17.36090753
364.948	17.36484303
365.155	17.38311959
365.361	17.38858296
365.568	17.38426666
365.775	17.39762537
365.981	17.42223399
366.188	17.42893455
366.395	17.45445422
366.601	17.46589639
366.808	17.48416206
367.014	17.48875831
367.221	17.48782793
367.427	17.49170117
367.634	17.51150756
367.84	17.52317264
368.047	17.53703296
368.254	17.54290622
368.46	17.54399318
368.667	17.5459106
368.873	17.55604854
369.079	17.56611414
369.286	17.58135014
369.492	17.58707009
369.699	17.61277776
369.905	17.63499227
370.112	17.65429486
370.318	17.65898254
370.524	17.68411605
370.731	17.67966182
370.937	17.68826592
371.144	17.69043989
371.35	17.7021594
371.556	17.72120812
371.763	17.73242799
371.969	17.73995919
372.175	17.75057348
372.381	17.75664137
372.588	17.76390721
372.794	17.77905046
373	17.78692187
373.206	17.80461622
373.413	17.82152979
373.619	17.82493941
373.825	17.83874342
374.031	17.85450415
374.238	17.86887812
374.444	17.86146841
374.65	17.86824506
374.856	17.86901663
375.062	17.89942808
375.268	17.91374321
375.475	17.92137066
375.681	17.93222809
375.887	17.94884901
376.093	17.97349421
376.299	17.9723193
376.505	17.99024449
376.711	18.01952477
376.917	18.04268478
377.123	18.04471281
377.329	18.06465372
377.535	18.07233297
377.741	18.08125382
377.947	18.0964233
