Data from carapace1_Reflection_09-33-07-808.txt Node
Date: Wed Dec 06 09:33:07 AEST 2023
User: uqkchene_local
Spectrometer: USB4E02642
Trigger mode: 4
Integration Time (sec): 1.700000E-2
Scans to average: 10
Electric dark correction enabled: true
Nonlinearity correction enabled: false
Boxcar width: 10
XAxis mode: Wavelengths
Number of Pixels in Spectrum: 3648
>>>>>Begin Spectral Data<<<<<
179.217	118.57988166
179.432	121.7877095
179.647	118.60718172
179.862	181.71428571
180.077	173.89277389
180.293	203.81679389
180.508	813.74045801
180.723	-249.24623116
180.938	17.38089538
181.153	24.55647878
181.368	26.00283717
181.583	27.09980086
181.798	27.7783623
182.013	28.3654639
182.228	28.61463563
182.443	28.6703195
182.658	28.67786253
182.873	28.96457827
183.088	28.71419136
183.303	28.61116199
183.518	28.40632624
183.733	28.1291158
183.948	28.30788334
184.162	28.29650059
184.377	28.26382199
184.592	28.23478178
184.807	28.20730396
185.022	28.23316038
185.237	28.39029504
185.452	28.50956157
185.667	28.55991517
185.882	28.60406922
186.096	28.60715351
186.311	28.58173286
186.526	28.40412561
186.741	28.26595011
186.956	28.22554722
187.17	28.26081246
187.385	28.19461426
187.6	28.21245464
187.815	28.29288789
188.03	28.32801883
188.244	28.34098268
188.459	28.2774318
188.674	28.3438356
188.889	28.3237844
189.103	28.35608206
189.318	28.38686582
189.533	28.40685964
189.747	28.29879003
189.962	28.32654225
190.177	28.2532524
190.391	28.21597252
190.606	28.27013966
190.821	28.28242705
191.035	28.38400019
191.25	28.48452224
191.465	28.40663417
191.679	28.38488096
191.894	28.41752832
192.109	28.58693505
192.323	28.67664202
192.538	28.65906732
192.752	28.76416375
192.967	28.75805827
193.181	28.69078286
193.396	28.737763
193.611	28.84938274
193.825	28.94021497
194.04	28.82312337
194.254	28.93639754
194.469	28.78203392
194.683	28.89533632
194.898	28.96705716
195.112	29.05627787
195.327	29.02434659
195.541	29.08661544
195.756	29.19621773
195.97	29.34976361
196.184	29.38197191
196.399	29.42265025
196.613	29.36265542
196.828	29.2856237
197.042	29.32354725
197.257	29.30153521
197.471	29.27321002
197.685	29.41588029
197.9	29.50391493
198.114	29.49641544
198.328	29.49089111
198.543	29.59823896
198.757	29.4577854
198.971	29.56480633
199.186	29.59232512
199.4	29.63684269
199.614	29.37163153
199.829	29.39825963
200.043	29.45477092
200.257	29.28946591
200.471	29.23722519
200.686	29.36909981
200.9	29.28697395
201.114	29.44000062
201.328	29.46314366
201.543	29.49018129
201.757	29.5145923
201.971	29.55410135
202.185	29.54665804
202.399	29.5914271
202.614	29.61904999
202.828	29.68179857
203.042	29.66693184
203.256	29.80313627
203.47	29.68160691
203.684	29.7259643
203.899	29.70220471
204.113	29.93120387
204.327	29.9228646
204.541	29.89371947
204.755	29.96326239
204.969	30.02429187
205.183	30.02885514
205.397	30.04049928
205.611	29.90917339
205.825	29.89510656
206.039	30.03247342
206.253	30.1030645
206.467	30.10308492
206.681	30.12842167
206.895	29.99894947
207.109	30.02522374
207.323	30.0068973
207.537	30.17474339
207.751	30.17835006
207.965	30.42596659
208.179	30.38106838
208.393	30.26001387
208.607	30.31258048
208.821	30.38574015
209.035	30.39959622
209.249	30.51154368
209.463	30.62742123
209.677	30.56229344
209.891	30.67921201
210.104	30.72305865
210.318	30.79641545
210.532	30.71854307
210.746	30.78446659
210.96	30.8483025
211.174	30.84973568
211.387	30.96839113
211.601	30.87462603
211.815	30.95243097
212.029	30.9790649
212.243	30.97739531
212.456	30.96860827
212.67	31.02414537
212.884	31.22954562
213.098	31.23655451
213.311	31.31044696
213.525	31.40665822
213.739	31.4370244
213.953	31.46758632
214.166	31.62002858
214.38	31.69422317
214.594	31.75811012
214.807	31.74684078
215.021	31.73634879
215.235	31.78282243
215.448	31.82367626
215.662	31.86663821
215.876	31.74857745
216.089	31.83970295
216.303	31.9909545
216.516	32.01242693
216.73	32.1435104
216.944	32.13432396
217.157	32.23383542
217.371	32.2110385
217.584	32.16243192
217.798	32.3429002
218.011	32.27265435
218.225	32.45261754
218.439	32.48061431
218.652	32.50310491
218.866	32.55920004
219.079	32.6054925
219.293	32.66018314
219.506	32.71628171
219.719	32.74383677
219.933	32.79212436
220.146	32.79975418
220.36	33.04319563
220.573	33.1641921
220.787	33.1040807
221	33.15277953
221.214	33.04689456
221.427	33.18846751
221.64	33.19399342
221.854	33.17952441
222.067	33.44852734
222.28	33.40027099
222.494	33.64289394
222.707	33.58115781
222.92	33.65328628
223.134	33.67377033
223.347	33.68845424
223.56	33.86516383
223.774	33.96921076
223.987	34.10947368
224.2	34.20653201
224.414	34.4298517
224.627	34.53088989
224.84	34.58124503
225.053	34.74669225
225.267	34.79687835
225.48	35.04937624
225.693	35.28784418
225.906	35.14780588
226.119	35.34678775
226.333	35.58108021
226.546	35.66871254
226.759	35.90766901
226.972	35.85662984
227.185	35.94088122
227.398	36.09612536
227.612	36.19532343
227.825	36.3465989
228.038	36.35186898
228.251	36.51127937
228.464	36.6273071
228.677	36.77887768
228.89	36.77188288
229.103	36.86299648
229.316	36.94136468
229.529	36.94999501
229.743	37.05484104
229.956	36.97389201
230.169	37.13136808
230.382	37.37247468
230.595	37.38966779
230.808	37.31741195
231.021	37.22473676
231.234	37.20579521
231.447	37.57019551
231.66	37.68553896
231.872	37.73047853
232.085	37.74704376
232.298	37.87448885
232.511	38.04701642
232.724	38.03778196
232.937	38.11096055
233.15	38.13845792
233.363	38.1305506
233.576	38.23097808
233.789	38.25901098
234.002	38.32768084
234.214	38.32454336
234.427	38.42783142
234.64	38.41987666
234.853	38.54620687
235.066	38.62300821
235.279	38.78412899
235.491	38.89215401
235.704	38.8947028
235.917	38.76225561
236.13	38.75805075
236.342	38.62319056
236.555	38.50242187
236.768	38.58221113
236.981	38.51993272
237.193	38.66984689
237.406	38.61392995
237.619	38.53544667
237.832	38.57629224
238.044	38.74572708
238.257	38.8631975
238.47	38.93393711
238.682	39.19374674
238.895	39.21011265
239.108	39.12489371
239.32	39.03958618
239.533	38.9057401
239.746	38.9575528
239.958	38.95068414
240.171	38.99324578
240.383	39.05353643
240.596	39.15403517
240.808	39.25471502
241.021	39.4835784
241.234	39.33809911
241.446	39.44774508
241.659	39.48292429
241.871	39.57103021
242.084	39.71307778
242.296	39.75031479
242.509	39.88506958
242.721	39.92913563
242.934	39.85991887
243.146	39.8109413
243.359	39.83994038
243.571	39.92743005
243.784	40.01532405
243.996	40.11394577
244.208	40.07425076
244.421	40.10830246
244.633	40.2311607
244.846	40.25930086
245.058	40.30236276
245.27	40.44260471
245.483	40.48410453
245.695	40.4989548
245.907	40.58095382
246.12	40.58930021
246.332	40.62391137
246.544	40.68073108
246.757	40.80993052
246.969	40.59442955
247.181	40.51734768
247.394	40.54766903
247.606	40.57297418
247.818	40.667404
248.03	40.82145495
248.243	40.87144102
248.455	41.02289165
248.667	41.15027295
248.879	41.25445716
249.092	41.25914802
249.304	41.18832496
249.516	41.12220479
249.728	41.06194475
249.94	41.07439606
250.153	41.24232283
250.365	41.15123484
250.577	41.15422588
250.789	41.17190101
251.001	41.30721435
251.213	41.36656426
251.425	41.43068237
251.637	41.66900696
251.85	41.78141214
252.062	41.76180406
252.274	41.68076786
252.486	41.6042645
252.698	41.80166006
252.91	41.66234772
253.122	41.75470767
253.334	41.70548176
253.546	41.76145813
253.758	41.89347584
253.97	42.00125401
254.182	42.15628678
254.394	42.20656185
254.606	42.26757645
254.818	42.28019877
255.03	42.35084609
255.242	42.34228961
255.454	42.41397189
255.666	42.57750917
255.877	42.59241715
256.089	42.48504012
256.301	42.49420497
256.513	42.55273868
256.725	42.67133858
256.937	42.78340677
257.149	42.78052764
257.361	42.98493475
257.572	42.94394516
257.784	42.98032978
257.996	42.94133528
258.208	42.92622759
258.42	42.90365532
258.631	42.84479782
258.843	42.83616965
259.055	42.88170132
259.267	42.95050275
259.479	42.9831254
259.69	42.99869544
259.902	43.08146002
260.114	42.95534624
260.325	43.00702975
260.537	42.97412654
260.749	43.01300989
260.961	43.07742932
261.172	43.14207006
261.384	43.1033768
261.596	42.97884175
261.807	42.90479563
262.019	42.94371646
262.23	42.97115012
262.442	43.10798515
262.654	43.17902016
262.865	43.23101954
263.077	43.07005899
263.288	43.16344313
263.5	43.17330596
263.712	43.15150713
263.923	43.08130133
264.135	43.28643397
264.346	42.98637893
264.558	42.93709511
264.769	42.95265516
264.981	42.97489833
265.192	43.01278123
265.404	42.98645919
265.615	42.97438781
265.827	42.93323395
266.038	42.96664753
266.25	42.95293592
266.461	42.97300017
266.673	43.11016495
266.884	43.04808936
267.095	43.04915971
267.307	42.90036598
267.518	43.03276143
267.73	43.06411437
267.941	42.97603552
268.152	43.019479
268.364	42.97509861
268.575	42.851476
268.786	42.83926303
268.998	42.92718635
269.209	42.92923566
269.42	42.9029259
269.632	42.86993321
269.843	42.78676597
270.054	42.6111338
270.265	42.60774616
270.477	42.60632057
270.688	42.50012421
270.899	42.48408356
271.11	42.39335619
271.322	42.30235098
271.533	42.11775505
271.744	42.21789281
271.955	42.13606677
272.166	42.07589346
272.378	41.98865211
272.589	42.00392337
272.8	42.05917147
273.011	41.99563009
273.222	42.0317996
273.433	41.89213738
273.644	41.82756883
273.856	41.67869594
274.067	41.60586156
274.278	41.58050445
274.489	41.46623213
274.7	41.42199077
274.911	41.25930535
275.122	41.38908701
275.333	41.30668735
275.544	41.11294818
275.755	41.03817492
275.966	40.96930295
276.177	40.84027684
276.388	40.79677725
276.599	40.62670247
276.81	40.5805367
277.021	40.39396493
277.232	40.18690124
277.443	39.97302619
277.654	39.92257004
277.865	39.7937562
278.076	39.53859233
278.287	39.53224479
278.497	39.42156359
278.708	39.23846525
278.919	39.19569517
279.13	38.97415179
279.341	38.85798026
279.552	38.57615182
279.763	38.33121682
279.973	38.23300541
280.184	37.9311467
280.395	37.85178918
280.606	37.65030218
280.817	37.36522584
281.027	37.12715629
281.238	36.87206187
281.449	36.5955199
281.66	36.34927374
281.87	36.24249125
282.081	35.93180677
282.292	35.78237788
282.503	35.64575733
282.713	35.28055741
282.924	34.90778423
283.135	34.66580201
283.345	34.4112522
283.556	34.22749372
283.767	34.04741968
283.977	33.80536246
284.188	33.50866959
284.399	33.21658656
284.609	33.09711439
284.82	32.77567335
285.03	32.67584024
285.241	32.50669519
285.451	32.36434783
285.662	32.15117578
285.873	32.0534163
286.083	31.85955035
286.294	31.6784745
286.504	31.51120521
286.715	31.19257585
286.925	31.10696491
287.136	31.0663834
287.346	31.0126697
287.557	30.92252512
287.767	30.78519566
287.978	30.75227236
288.188	30.6434169
288.399	30.57093985
288.609	30.58804208
288.819	30.47047954
289.03	30.47495069
289.24	30.3531409
289.451	30.36296589
289.661	30.39358636
289.871	30.35115865
290.082	30.30144314
290.292	30.21869764
290.502	30.31539044
290.713	30.23388253
290.923	30.15121718
291.133	30.23890108
291.344	30.03227721
291.554	30.03921149
291.764	29.96374165
291.974	29.96890066
292.185	29.92826598
292.395	29.74547388
292.605	29.66245464
292.815	29.51869981
293.026	29.33334184
293.236	29.36605655
293.446	29.13380472
293.656	29.15438049
293.866	28.94742195
294.077	28.76265003
294.287	28.51688616
294.497	28.44443215
294.707	28.25212706
294.917	28.03874026
295.127	27.78600025
295.337	27.68778889
295.548	27.48137021
295.758	27.35700732
295.968	27.07881916
296.178	26.86073123
296.388	26.62285543
296.598	26.44148175
296.808	26.28671295
297.018	25.94747904
297.228	25.74310518
297.438	25.50114676
297.648	25.19237683
297.858	25.00750046
298.068	24.63207253
298.278	24.33578518
298.488	24.15608601
298.698	23.93631024
298.908	23.64384397
299.118	23.38688919
299.328	23.0330024
299.538	22.79274771
299.748	22.49243269
299.957	22.19841445
300.167	21.8767709
300.377	21.58107847
300.587	21.25320684
300.797	20.94087766
301.007	20.62217777
301.217	20.31677384
301.426	20.09444786
301.636	19.80270731
301.846	19.56927499
302.056	19.32060442
302.266	19.00936118
302.475	18.79134177
302.685	18.50871294
302.895	18.15404908
303.105	17.88657798
303.314	17.66745552
303.524	17.37241419
303.734	17.17577704
303.944	16.89152993
304.153	16.61844876
304.363	16.31993895
304.573	16.09801857
304.782	15.88100696
304.992	15.7197515
305.202	15.46723764
305.411	15.29197393
305.621	15.04338901
305.831	14.85698082
306.04	14.6636694
306.25	14.48059794
306.459	14.27229854
306.669	14.09357498
306.878	13.92030023
307.088	13.74014691
307.298	13.57531834
307.507	13.41839741
307.717	13.2352773
307.926	13.09164084
308.136	12.95966146
308.345	12.86617738
308.555	12.76075836
308.764	12.64252245
308.974	12.50687502
309.183	12.37291234
309.392	12.23508339
309.602	12.13202877
309.811	11.99920018
310.021	11.85216428
310.23	11.72640176
310.44	11.59481225
310.649	11.49250624
310.858	11.38929777
311.068	11.28136419
311.277	11.18269368
311.486	11.09670744
311.696	10.99646366
311.905	10.92498084
312.114	10.83287417
312.324	10.77240692
312.533	10.66545555
312.742	10.57423719
312.952	10.462627
313.161	10.40389777
313.37	10.31826379
313.579	10.25755601
313.789	10.16487963
313.998	10.09657096
314.207	10.05556603
314.416	10.01143064
314.625	9.95405137
314.835	9.90025287
315.044	9.83466648
315.253	9.76614747
315.462	9.69376436
315.671	9.62438334
315.88	9.54826731
316.09	9.49538227
316.299	9.41202692
316.508	9.34367602
316.717	9.29657229
316.926	9.23572968
317.135	9.18550244
317.344	9.14144814
317.553	9.09035013
317.762	9.03947749
317.971	8.99094511
318.18	8.96062084
318.389	8.93455641
318.598	8.88179367
318.807	8.87294035
319.016	8.81570156
319.225	8.77942157
319.434	8.71163174
319.643	8.65456774
319.852	8.60094001
320.061	8.52235702
320.27	8.47881093
320.479	8.42038879
320.688	8.34046989
320.897	8.25795207
321.105	8.17719921
321.314	8.11147997
321.523	8.064941
321.732	8.02458054
321.941	7.9676128
322.15	7.94055587
322.359	7.89276181
322.567	7.85535585
322.776	7.80595335
322.985	7.77329177
323.194	7.72020287
323.403	7.68779556
323.611	7.64017008
323.82	7.61639078
324.029	7.59785217
324.237	7.57886848
324.446	7.57191319
324.655	7.55072778
324.864	7.52276951
325.072	7.50796275
325.281	7.50903439
325.49	7.49987234
325.698	7.50245035
325.907	7.49135415
326.116	7.45691371
326.324	7.44574385
326.533	7.43930474
326.741	7.43893538
326.95	7.41592171
327.159	7.40620704
327.367	7.37786106
327.576	7.37162963
327.784	7.35741493
327.993	7.36545242
328.201	7.34058565
328.41	7.32171768
328.618	7.32013669
328.827	7.31900891
329.035	7.30705461
329.244	7.3206195
329.452	7.32958414
329.661	7.32599617
329.869	7.31287921
330.078	7.30812896
330.286	7.29663583
330.495	7.30734742
330.703	7.29711492
330.911	7.27629088
331.12	7.25371663
331.328	7.25827763
331.537	7.24225922
331.745	7.23564627
331.953	7.23030371
332.162	7.22062279
332.37	7.2066367
332.578	7.21992147
332.787	7.23245521
332.995	7.23182443
333.203	7.2085019
333.411	7.20584753
333.62	7.17850345
333.828	7.16328089
334.036	7.14924934
334.244	7.16248813
334.453	7.15080716
334.661	7.14745855
334.869	7.14126494
335.077	7.14120154
335.285	7.14765915
335.494	7.15284561
335.702	7.13291742
335.91	7.12723966
336.118	7.12636115
336.326	7.10616195
336.534	7.11241778
336.742	7.09961076
336.951	7.09916379
337.159	7.07299695
337.367	7.06009793
337.575	7.0700781
337.783	7.05801386
337.991	7.06048649
338.199	7.05845254
338.407	7.06904122
338.615	7.04543665
338.823	7.04826102
339.031	7.03261869
339.239	7.03054832
339.447	7.03068287
339.655	7.02948741
339.863	7.02309181
340.071	7.03570248
340.279	7.03487642
340.487	7.02609367
340.695	7.03352069
340.903	7.00673626
341.11	7.00976068
341.318	7.00548736
341.526	7.00816717
341.734	7.00869857
341.942	7.00680607
342.15	6.99277916
342.358	7.00075271
342.565	7.01011452
342.773	6.9887709
342.981	6.98823885
343.189	6.98026986
343.397	6.97972862
343.604	6.9691048
343.812	6.96674576
344.02	6.94412616
344.228	6.94094593
344.435	6.93453233
344.643	6.92265724
344.851	6.91893355
345.058	6.92415014
345.266	6.9344868
345.474	6.92348624
345.681	6.91565948
345.889	6.91445057
346.097	6.90539435
346.304	6.90020822
346.512	6.89347201
346.72	6.88235704
346.927	6.87515272
347.135	6.87862941
347.342	6.86775935
347.55	6.86477001
347.758	6.86671044
347.965	6.86691499
348.173	6.85976858
348.38	6.86729208
348.588	6.86870439
348.795	6.86902335
349.003	6.8626684
349.21	6.87026677
349.418	6.87009826
349.625	6.87040459
349.833	6.88429181
350.04	6.88217842
350.247	6.88599182
350.455	6.88451716
350.662	6.87731509
350.87	6.8947895
351.077	6.90025903
351.284	6.89016511
351.492	6.89166346
351.699	6.89293706
351.906	6.89315291
352.114	6.88906217
352.321	6.8976735
352.528	6.89540586
352.736	6.88546469
352.943	6.88190268
353.15	6.8634272
353.358	6.88234175
353.565	6.8732765
353.772	6.86305229
353.979	6.87533929
354.187	6.86888289
354.394	6.86480576
354.601	6.85671292
354.808	6.84949431
355.015	6.84633761
355.223	6.83710494
355.43	6.82916247
355.637	6.83186616
355.844	6.8231992
356.051	6.82589475
356.258	6.81345611
356.465	6.80200544
356.673	6.78820575
356.88	6.78214125
357.087	6.79792304
357.294	6.78612423
357.501	6.79570969
357.708	6.78384207
357.915	6.76481796
358.122	6.75555467
358.329	6.72990438
358.536	6.72844478
358.743	6.72302946
358.95	6.71882325
359.157	6.71944389
359.364	6.71966327
359.571	6.71911936
359.778	6.7045974
359.985	6.69397931
360.192	6.68752625
360.399	6.68285334
360.606	6.69439729
360.812	6.69207057
361.019	6.69223957
361.226	6.68855732
361.433	6.66650754
361.64	6.66664866
361.847	6.66431436
362.054	6.65886217
362.26	6.65571165
362.467	6.65096719
362.674	6.65121601
362.881	6.63920159
363.088	6.64726301
363.294	6.64131247
363.501	6.6288922
363.708	6.61613299
363.915	6.61042358
364.121	6.62337344
364.328	6.62434927
364.535	6.63188751
364.741	6.63439875
364.948	6.62096474
365.155	6.62021511
365.361	6.62237514
365.568	6.61845338
365.775	6.6314416
365.981	6.62431392
366.188	6.61528265
366.395	6.60719958
366.601	6.62256197
366.808	6.63862525
367.014	6.64361678
367.221	6.64390702
367.427	6.62071157
367.634	6.62956506
367.84	6.63461014
368.047	6.64463837
368.254	6.64646787
368.46	6.64391379
368.667	6.64221856
368.873	6.64487217
369.079	6.63894482
369.286	6.63282428
369.492	6.63888449
369.699	6.62935982
369.905	6.63471338
370.112	6.63162607
370.318	6.63682425
370.524	6.64801916
370.731	6.65455818
370.937	6.65223405
371.144	6.63616649
371.35	6.63567347
371.556	6.63559695
371.763	6.64645289
371.969	6.6368733
372.175	6.635786
372.381	6.62808393
372.588	6.63272967
372.794	6.64193767
373	6.63968125
373.206	6.62683681
373.413	6.62920909
373.619	6.63343008
373.825	6.63474395
374.031	6.63767666
374.238	6.63638574
374.444	6.63437527
374.65	6.63886368
374.856	6.63986133
375.062	6.65206163
375.268	6.65237502
375.475	6.65686986
375.681	6.65941515
375.887	6.67373376
376.093	6.68027205
376.299	6.66541953
376.505	6.673965
376.711	6.69593334
376.917	6.69314549
377.123	6.68321895
377.329	6.69267436
377.535	6.70503342
377.741	6.71407734
377.947	6.72700051
378.153	6.724701
378.359	6.72829614
378.565	6.72183265
378.771	6.73113519
378.977	6.72920729
379.183	6.73084109
379.389	6.72618995
379.595	6.72773432
379.801	6.7313592
380.007	6.7290796
380.213	6.72428357
380.418	6.72275595
380.624	6.74699349
380.83	6.7471684
