Data from green_paint_Reflection_002.txt Node
Date: Tue Nov 21 14:23:54 AEST 2023
User: uqkchene_local
Spectrometer: USB4E02642
Trigger mode: 4
Integration Time (sec): 7.600000E-2
Scans to average: 10
Electric dark correction enabled: true
Nonlinearity correction enabled: false
Boxcar width: 10
XAxis mode: Wavelengths
Number of Pixels in Spectrum: 3648
>>>>>Begin Spectral Data<<<<<
179.217	60.30651341
179.432	3.36538462
179.647	22.00088535
179.862	9.5970696
180.077	104.44444444
180.293	5.47263682
180.508	64.93256262
180.723	103.92156863
180.938	-2153.33333335
181.153	-655.91397849
181.368	-2887.0967742
181.583	-468.50393701
181.798	165.77181208
182.013	56.37149028
182.228	-39.17710197
182.443	31.02505695
182.658	47.36842105
182.873	36.13220188
183.088	22.20054623
183.303	30.26862365
183.518	13.21855851
183.733	12.89138415
183.948	12.6707842
184.162	24.98802491
184.377	29.48661045
184.592	26.57056416
184.807	18.1115315
185.022	16.43672288
185.237	19.37794863
185.452	35.02257172
185.667	48.45665337
185.882	52.37017122
186.096	56.00384246
186.311	49.42499031
186.526	53.77448966
186.741	59.02930167
186.956	63.58966611
187.17	65.02188019
187.385	64.58989456
187.6	75.28968309
187.815	84.08034777
188.03	90.4899552
188.244	95.67208972
188.459	94.10358566
188.674	98.45835683
188.889	101.58568815
189.103	103.76729455
189.318	115.13192382
189.533	119.29379963
189.747	110.95059747
189.962	110.56894108
190.177	111.88607311
190.391	111.37211855
190.606	106.4820777
190.821	107.16587678
191.035	95.07680918
191.25	103.25298844
191.465	100.88888889
191.679	92.40103441
191.894	91.53794493
192.109	92.79516171
192.323	96.52399481
192.538	90.33841385
192.752	75.01688049
192.967	90.13630731
193.181	79.16199866
193.396	75.77792702
193.611	77.74744027
193.825	76.69465493
194.04	75.35324629
194.254	69.61060481
194.469	73.83563821
194.683	73.50899561
194.898	63.27415639
195.112	56.70672745
195.327	44.45354744
195.541	49.56994115
195.756	47.62113893
195.97	49.37385676
196.184	59.06757319
196.399	57.17682393
196.613	59.62484273
196.828	55.23440254
197.042	52.4340653
197.257	57.18958207
197.471	49.15333411
197.685	51.0951526
197.9	38.11805961
198.114	29.39811831
198.328	32.21735087
198.543	25.52250191
198.757	30.30446443
198.971	32.49556952
199.186	33.72799501
199.4	52.12316021
199.614	57.18915231
199.829	64.36477007
200.043	58.36037575
200.257	56.21161086
200.471	53.46664175
200.686	51.72699069
200.9	63.12086975
201.114	47.487615
201.328	49.49585481
201.543	59.68023982
201.757	55.77807848
201.971	64.32382278
202.185	64.17438446
202.399	92.51074279
202.614	94.84891503
202.828	95.64918708
203.042	90.88241049
203.256	90.46147905
203.47	86.46895273
203.684	96.97808044
203.899	87.09242186
204.113	81.75689909
204.327	81.04350966
204.541	92.62826449
204.755	86.47503225
204.969	89.51204697
205.183	88.37079695
205.397	90.77641565
205.611	108.86101558
205.825	105.12820513
206.039	106.57501494
206.253	114.66787989
206.467	112.54125413
206.681	105.46752568
206.895	113.64962084
207.109	106.92951016
207.323	99.18515165
207.537	99.77459346
207.751	100.33237649
207.965	97.78228955
208.179	91.11664591
208.393	90.71259239
208.607	97.4980695
208.821	98.78349499
209.035	93.53108765
209.249	94.1323898
209.463	97.99969226
209.677	92.61253178
209.891	82.88911795
210.104	75.77298889
210.318	76.78454055
210.532	75.02388426
210.746	69.03740943
210.96	73.93813111
211.174	78.69096935
211.387	66.58626789
211.601	66.91891892
211.815	74.15139442
212.029	70.72429512
212.243	66.74593013
212.456	71.15285197
212.67	66.34118323
212.884	60.38578318
213.098	66.14834674
213.311	69.7495563
213.525	75.95606982
213.739	66.31965707
213.953	66.49315597
214.166	65.42979676
214.38	79.70800222
214.594	77.42841101
214.807	82.20249419
215.021	75.26366251
215.235	74.76923077
215.448	69.5289113
215.662	62.55483418
215.876	55.80365054
216.089	62.06830021
216.303	49.57313603
216.516	58.62188968
216.73	56.88311688
216.944	50.7732439
217.157	64.09739715
217.371	57.21490158
217.584	47.73027766
217.798	45.66710507
218.011	43.82966802
218.225	49.44012647
218.439	40.54480853
218.652	38.51096522
218.866	38.9608655
219.079	45.33149517
219.293	43.06236461
219.506	45.94908753
219.719	39.81793241
219.933	40.76179648
220.146	44.45470401
220.36	56.72443499
220.573	51.15076549
220.787	51.54850545
221	43.42801598
221.214	46.93604197
221.427	42.50874775
221.64	36.24959794
221.854	36.11862756
222.067	39.13634818
222.28	29.86894587
222.494	36.68405921
222.707	30.6770899
222.92	28.14356736
223.134	24.34683832
223.347	15.82546847
223.56	8.30515949
223.774	6.91690631
223.987	4.91177873
224.2	11.9372549
224.414	5.53492485
224.627	8.32869597
224.84	-11.93102065
225.053	-20.81540204
225.267	-19.7509243
225.48	-12.57971014
225.693	-8.942472
225.906	-20.30688084
226.119	-35.60587211
226.333	-23.46032655
226.546	-45.84291817
226.759	-14.53971896
226.972	-65.54162649
227.185	-44.14073072
227.398	-22.03864464
227.612	0.02618487
227.825	13.86713817
228.038	3.89052858
228.251	1.07357947
228.464	-0.23329799
228.677	-8.2078473
228.89	-0.05986829
229.103	-6.07710738
229.316	11.69199595
229.529	29.97530864
229.743	37.4796601
229.956	46.73404454
230.169	42.17746136
230.382	49.34664513
230.595	47.94680696
230.808	51.271248
231.021	61.6187653
231.234	63.6159641
231.447	88.83768561
231.66	82.74801748
231.872	86.85663402
232.085	94.81572915
232.298	87.84160625
232.511	88.87497764
232.724	89.68470931
232.937	119.2971246
233.15	135.59283609
233.363	142.96147066
233.576	135.19959829
233.789	119.84803131
234.002	131.81675557
234.214	122.39022972
234.427	114.4600939
234.64	122.19379597
234.853	106.31286854
235.066	128.63232682
235.279	103.41575325
235.491	82.81786942
235.704	82.80681601
235.917	68.14319291
236.13	68.74884152
236.342	65.1240542
236.555	42.80582718
236.768	45.96468064
236.981	40.81121683
237.193	47.90907513
237.406	28.54276856
237.619	27.37662338
237.832	27.77688732
238.044	32.8608843
238.257	36.68372887
238.47	39.66640191
238.682	42.08101668
238.895	35.31325131
239.108	35.09510672
239.32	48.47593997
239.533	48.00068646
239.746	40.54054054
239.958	33.00124533
240.171	10.00804937
240.383	11.5629742
240.596	28.6661363
240.808	14.30152144
241.021	45.16586334
241.234	51.54257507
241.446	60.51036683
241.659	52.73953358
241.871	58.67768595
242.084	55.64995752
242.296	42.74786702
242.509	39.83173774
242.721	17.60636458
242.934	20.1320132
243.146	17.1237954
243.359	33.514542
243.571	28.41201717
243.784	-1.48992112
243.996	1.97892573
244.208	-1.52584833
244.421	17.82767223
244.633	33.03047511
244.846	27.63946938
245.058	22.04379562
245.27	38.85588185
245.483	24.10332103
245.695	27.4404516
245.907	26.65764547
246.12	17.43467933
246.332	27.36792004
246.544	34.9208836
246.757	46.05076462
246.969	43.08647584
247.181	42.86945282
247.394	42.72219837
247.606	48.07490637
247.818	42.17410916
248.03	47.11678243
248.243	50.27940966
248.455	48.32116788
248.667	53.17388494
248.879	44.53587412
249.092	41.72039629
249.304	43.01281107
249.516	46.34563328
249.728	37.01197293
249.94	42.55002481
250.153	35.81093271
250.365	44.4295302
250.577	57.12922313
250.789	48.3362185
251.001	36.57664103
251.213	39.38203251
251.425	42.0823846
251.637	51.46135527
251.85	44.44688806
252.062	33.03984151
252.274	39.20122106
252.486	25.64375399
252.698	32.63733532
252.91	29.73550628
253.122	15.78112609
253.334	32.9899321
253.546	30.28657052
253.758	29.45849885
253.97	36.30395862
254.182	40.32344055
254.394	40.2113559
254.606	40.62773979
254.818	36.53936822
255.03	34.63196551
255.242	42.60327358
255.454	39.85037406
255.666	27.62071993
255.877	34.07857965
256.089	36.62501882
256.301	46.12610013
256.513	52.60080947
256.725	52.43108464
256.937	65.19464533
257.149	61.61860184
257.361	60.87281423
257.572	68.37729816
257.784	71.90240791
257.996	78.12548897
258.208	71.02903177
258.42	54.18271453
258.631	56.18822835
258.843	61.29324671
259.055	58.6320684
259.267	54.54129141
259.479	52.75375512
259.69	40.12950357
259.902	51.88047398
260.114	56.38014717
260.325	60.71245076
260.537	48.53983065
260.749	37.08848716
260.961	32.24322943
261.172	33.88629687
261.384	30.87882183
261.596	34.72902245
261.807	41.8678645
262.019	43.63602181
262.23	40.93789607
262.442	31.25572869
262.654	30.39395795
262.865	48.13251741
263.077	63.4294787
263.288	62.6707132
263.5	71.39858305
263.712	86.86131387
263.923	92.46403288
264.135	88.89986174
264.346	84.73131073
264.558	87.20591095
264.769	78.1397992
264.981	88.8370205
265.192	83.79288571
265.404	84.30484037
265.615	83.12282629
265.827	68.99050072
266.038	63.61779723
266.25	65.65371025
266.461	63.42574515
266.673	65.62879094
266.884	70.95920924
267.095	78.68417377
267.307	72.22735065
267.518	65.75960952
267.73	65.24931896
267.941	62.92260062
268.152	57.94580523
268.364	48.0239521
268.575	44.84322882
268.786	36.23224212
268.998	35.75061954
269.209	35.32240168
269.42	33.7082773
269.632	34.68077518
269.843	33.90201729
270.054	26.46596542
270.265	40.46888425
270.477	43.01033085
270.688	35.14832413
270.899	33.74315114
271.11	31.05517151
271.322	25.46241637
271.533	25.94381594
271.744	26.01355842
271.955	20.81316554
272.166	22.33483002
272.378	26.36121335
272.589	28.7823378
272.8	34.28536255
273.011	40.79765825
273.222	44.90076145
273.433	35.99686643
273.644	39.94431924
273.856	47.0397975
274.067	50.92947353
274.278	52.11267606
274.489	64.23797881
274.7	60.66442834
274.911	53.45083182
275.122	54.66747097
275.333	57.57920159
275.544	58.13414457
275.755	57.96103706
275.966	54.36108353
276.177	49.90638053
276.388	50.21711724
276.599	60.04346055
276.81	56.16560321
277.021	51.92167178
277.232	56.51638714
277.443	52.09598578
277.654	52.22594543
277.865	53.47145342
278.076	46.89711934
278.287	35.64075787
278.497	43.31759727
278.708	45.58524769
278.919	39.56768358
279.13	34.91996033
279.341	37.26143205
279.552	39.9314599
279.763	36.00116839
279.973	38.09305873
280.184	44.06803685
280.395	36.50035137
280.606	40.45071132
280.817	43.06166018
281.027	31.59841817
281.238	27.92314499
281.449	28.36604576
281.66	27.5104979
281.87	27.19645212
282.081	33.37967791
282.292	38.64158373
282.503	40.58339262
282.713	46.24168404
282.924	42.55621976
283.135	44.45396553
283.345	44.51447885
283.556	43.42016726
283.767	44.55125155
283.977	39.88204583
284.188	36.32425147
284.399	42.36040843
284.609	43.04151016
284.82	52.07151783
285.03	60.51287624
285.241	59.61120877
285.451	56.03493634
285.662	67.13688102
285.873	66.26820693
286.083	71.57021231
286.294	68.385532
286.504	66.47002038
286.715	70.14212621
286.925	68.89213183
287.136	69.24015124
287.346	73.2718894
287.557	73.99062107
287.767	77.31762466
287.978	69.90141347
288.188	64.31838975
288.399	67.27176361
288.609	78.32357561
288.819	62.82775605
289.03	54.51058389
289.24	54.05732741
289.451	44.50853443
289.661	38.06341878
289.871	45.13603185
290.082	35.10071475
290.292	35.89535826
290.502	31.13063855
290.713	35.69530558
290.923	34.7638484
291.133	32.88605613
291.344	26.82589131
291.554	24.72849831
291.764	15.22103364
291.974	16.46636105
292.185	8.18940195
292.395	16.48175683
292.605	18.19588242
292.815	21.46938776
293.026	19.35244948
293.236	19.05641918
293.446	18.77546269
293.656	14.62459969
293.866	6.75873058
294.077	10.27406507
294.287	14.75367882
294.497	8.44181989
294.707	6.25091068
294.917	6.72439453
295.127	9.86088883
295.337	-0.83654229
295.548	-6.08743021
295.758	5.51446737
295.968	2.4285894
296.178	7.95793847
296.388	5.1755238
296.598	7.21578128
296.808	11.68068871
297.018	17.53784057
297.228	11.34399706
297.438	21.97945845
297.648	23.22464493
297.858	44.44658325
298.068	39.1162696
298.278	41.76834992
298.488	44.90679721
298.698	39.77566868
298.908	45.62016092
299.118	42.26773958
299.328	52.00118151
299.538	53.99463807
299.748	60.51517939
299.957	56.89746768
300.167	63.38712476
300.377	65.36577125
300.587	50.21749638
300.797	44.33270837
301.007	38.87406991
301.217	28.23152915
301.426	27.09590053
301.636	34.16837288
301.846	24.21237605
302.056	29.93028477
302.266	18.13686026
302.475	24.44241107
302.685	30.28466903
302.895	31.76822111
303.105	30.97387745
303.314	29.16387062
303.524	34.16678505
303.734	30.58610608
303.944	34.46964731
304.153	43.90573217
304.363	49.33670246
304.573	46.77398748
304.782	48.99110164
304.992	67.051798
305.202	70.78595527
305.411	77.87245373
305.621	81.8009703
305.831	86.07446114
306.04	89.78785662
306.25	91.56327543
306.459	91.76869745
306.669	105.61983471
306.878	102.10891232
307.088	97.48886189
307.298	98.89251739
307.507	94.34822242
307.717	91.06215977
307.926	85.92272674
308.136	86.58207026
308.345	83.69781312
308.555	79.84255461
308.764	82.84106892
308.974	88.85354071
309.183	89.1217444
309.392	78.66635305
309.602	76.17576382
309.811	74.51179591
310.021	74.98453544
310.23	70.79301524
310.44	69.70644045
310.649	75.85357269
310.858	76.07885563
311.068	73.29862402
311.277	64.46440026
311.486	66.60107569
311.696	64.38571242
311.905	59.56727519
312.114	63.59514602
312.324	64.30881733
312.533	61.08310529
312.742	57.34568824
312.952	55.63738383
313.161	49.09872664
313.37	50.99619772
313.579	42.93043609
313.789	39.12777353
313.998	36.28843452
314.207	40.43417148
314.416	36.82619647
314.625	45.22435301
314.835	42.91446289
315.044	26.74604585
315.253	28.63926642
315.462	22.68024829
315.671	26.99291025
315.88	6.52215986
316.09	0.59979317
316.299	5.57140141
316.508	-5.72063877
316.717	-11.21096383
316.926	10.16845951
317.135	15.31976146
317.344	23.83730908
317.553	30.33784943
317.762	22.40287524
317.971	38.76118617
318.18	46.46904969
318.389	51.08141375
318.598	42.47744053
318.807	40.1146553
319.016	30.34965035
319.225	33.82235688
319.434	45.95008421
319.643	39.29874663
319.852	38.06341045
320.061	41.43499251
320.27	45.51507305
320.479	55.64375298
320.688	66.29803187
320.897	71.29503408
321.105	70.03679692
321.314	55.03756502
321.523	59.10724418
321.732	48.67836257
321.941	48.48551846
322.15	40.61982493
322.359	34.83146067
322.567	24.90815577
322.776	15.81620873
322.985	22.10223182
323.194	29.68713789
323.403	34.29931691
323.611	34.83514233
323.82	40.23775942
324.029	51.44821838
324.237	49.68316493
324.446	47.89585721
324.655	56.77341552
324.864	51.98802196
325.072	55.01454601
325.281	50.39212671
325.49	51.8573065
325.698	50.77983911
325.907	40.27040904
326.116	48.75982129
326.324	45.75663789
326.533	57.06936867
326.741	53.60973267
326.95	65.01985703
327.159	67.78460085
327.367	78.29484285
327.576	73.6374717
327.784	79.06849315
327.993	85.52746295
328.201	76.6350302
328.41	59.61995249
328.618	61.52354082
328.827	63.36111584
329.035	57.78073342
329.244	54.54694413
329.452	48.59275385
329.661	50.74932955
329.869	49.12206771
330.078	48.64523375
330.286	56.46131231
330.495	54.49677331
330.703	56.59832118
330.911	49.21560461
331.12	42.69005848
331.328	37.65096218
331.537	31.74051952
331.745	22.27687983
331.953	29.52082517
332.162	28.03289925
332.37	19.26106258
332.578	18.78754016
332.787	22.5277098
332.995	25.38845331
333.203	23.85818238
333.411	19.24202742
333.62	19.1957381
333.828	21.26872932
334.036	20.43660789
334.244	7.39389284
334.453	16.68928087
334.661	3.12065196
334.869	14.12789463
335.077	17.60609358
335.285	21.59518435
335.494	44.83230664
335.702	45.73093489
335.91	56.2055336
336.118	46.33502091
336.326	39.56014119
336.534	40.18126888
336.742	41.12214269
336.951	47.46644755
337.159	53.56244761
337.367	58.11023622
337.575	55.15330624
337.783	92.96035569
337.991	99.04549793
338.199	88.57306919
338.407	137.83377209
338.615	151.6109236
338.823	136.42404108
339.031	160.98535286
339.239	124.88611844
339.447	125.12758202
339.655	98.9917322
339.863	94.33922111
340.071	87.48577929
340.279	88.15176392
340.487	97.05515348
340.695	83.60272639
340.903	86.07663249
341.11	84.18634131
341.318	87.19974206
341.526	94.62019963
341.734	94.10278012
341.942	90.49084475
342.15	78.36561171
342.358	69.89281715
342.565	58.48633497
342.773	55.95891375
342.981	42.86151492
343.189	47.42563793
343.397	34.40669779
343.604	42.8525069
343.812	38.81943345
344.02	41.79079498
344.228	38.09600776
344.435	46.67829119
344.643	49.47329514
344.851	55.22766936
345.058	59.37443171
345.266	58.43307943
345.474	41.54256501
345.681	31.49069467
345.889	33.33333333
346.097	36.72196013
346.304	41.80289584
346.512	46.64937311
346.72	48.41676521
346.927	53.08077198
347.135	55.83977512
347.342	56.36314142
347.55	56.60459073
347.758	62.13860235
347.965	58.82606819
348.173	64.21952958
348.38	66.56486522
348.588	67.440612
348.795	71.18584071
349.003	58.22222222
349.21	60.63672541
349.418	61.91253644
349.625	58.09367297
349.833	70.88955224
350.04	74.60818856
350.247	70.96201633
350.455	69.16214587
350.662	67.42268041
350.87	64.54187746
351.077	60.05709528
351.284	63.67676295
351.492	58.45366686
351.699	66.30541872
351.906	65.63968668
352.114	61.76800081
352.321	65.11603037
352.528	60.55607428
352.736	57.09378578
352.943	53.85578629
353.15	42.49805361
353.358	49.63052695
353.565	48.0338111
353.772	49.96968595
353.979	51.42113011
354.187	40.59712145
354.394	44.46196773
354.601	36.35345364
354.808	32.23272534
355.015	28.37082481
355.223	36.33407051
355.43	45.42148331
355.637	38.88396811
355.844	41.64305949
356.051	36.30198337
356.258	38.55659261
356.465	32.10680976
356.673	36.71375106
356.88	35.06221349
357.087	35.67380788
357.294	42.91983994
357.501	49.59272813
357.708	54.91731941
357.915	52.14509068
358.122	50.85855466
358.329	48.97879537
358.536	51.96310607
358.743	49.37221547
358.95	57.77987337
359.157	63.47968814
359.364	58.89747085
359.571	59.82185462
359.778	39.37867338
359.985	42.25788802
360.192	35.03231764
360.399	33.01133197
360.606	36.12153709
360.812	35.9764475
361.019	26.32845398
361.226	23.17787673
361.433	27.21636702
361.64	14.58482037
361.847	7.11544139
362.054	-5.70461058
362.26	-7.61597618
362.467	-6.00387347
362.674	6.51207729
362.881	18.40063656
363.088	24.29490351
363.294	21.95359403
363.501	23.46891788
363.708	31.74295512
363.915	25.66498922
364.121	45.38562473
364.328	49.71348707
364.535	50.79340625
364.741	47.3015873
364.948	41.09156518
365.155	48.5483172
365.361	48.97602794
365.568	44.11289137
365.775	47.65100671
365.981	47.44223108
366.188	44.54416627
366.395	52.54932912
366.601	61.58695986
366.808	63.99527586
367.014	63.42468207
367.221	58.85975717
367.427	60.54473236
367.634	61.03312746
367.84	49.70339745
368.047	51.10124005
368.254	48.04524707
368.46	38.87872234
368.667	26.48707286
368.873	25.67772352
369.079	24.71541578
369.286	26.75997493
369.492	12.54652945
369.699	14.41987869
369.905	19.49349028
370.112	17.22329079
370.318	15.56857003
370.524	19.27121908
370.731	19.41024472
370.937	13.67640241
371.144	12.15113783
371.35	11.54345006
371.556	8.32112901
371.763	1.87021464
371.969	2.22058643
372.175	4.36860975
372.381	5.12329117
372.588	8.42091605
372.794	7.10567047
373	12.34615883
373.206	13.23258386
373.413	16.17296561
373.619	16.65822785
373.825	19.75665703
374.031	21.11417435
374.238	23.98880201
374.444	26.30989073
374.65	29.52848909
374.856	32.04799508
375.062	25.33707259
375.268	23.18426895
375.475	29.73328943
375.681	32.00041654
375.887	29.0210171
376.093	31.47955046
376.299	31.12013929
376.505	41.27876153
376.711	42.19362622
376.917	39.51589385
377.123	35.30738308
377.329	30.31962561
