Data from claw1_Reflection_08-59-20-961.txt Node
Date: Wed Dec 06 08:59:20 AEST 2023
User: uqkchene_local
Spectrometer: USB4E02642
Trigger mode: 4
Integration Time (sec): 1.700000E-2
Scans to average: 10
Electric dark correction enabled: true
Nonlinearity correction enabled: false
Boxcar width: 10
XAxis mode: Wavelengths
Number of Pixels in Spectrum: 3648
>>>>>Begin Spectral Data<<<<<
179.217	138.37409576
179.432	103.2388664
179.647	245.81033618
179.862	245.88701685
180.077	1621.6
180.293	441.11842105
180.508	1191.42857143
180.723	231.67701863
180.938	-125.24797115
181.153	24.86317435
181.368	30.81761006
181.583	58.76433419
181.798	73.40913259
182.013	80.86225026
182.228	80.33790076
182.443	72.63258709
182.658	72.82302638
182.873	72.73159145
183.088	72.2058947
183.303	69.56827231
183.518	66.03773585
183.733	66.92934243
183.948	63.5976389
184.162	69.24252218
184.377	69.33638444
184.592	73.37508928
184.807	72.36026462
185.022	68.45359797
185.237	66.35402846
185.452	67.37576054
185.667	67.90580765
185.882	68.88366415
186.096	66.18695595
186.311	68.35437311
186.526	71.17508433
186.741	68.8153553
186.956	70.25573893
187.17	72.70523364
187.385	73.50936562
187.6	72.00780469
187.815	70.82838268
188.03	69.59645147
188.244	68.82729416
188.459	69.1573614
188.674	68.04928928
188.889	67.92957541
189.103	65.67056446
189.318	61.74714875
189.533	61.08017543
189.747	58.63866621
189.962	55.9819525
190.177	55.42869114
190.391	55.79610713
190.606	58.93338977
190.821	59.08106202
191.035	55.75256699
191.25	56.29677355
191.465	52.65351208
191.679	50.40016312
191.894	49.76303318
192.109	52.60321384
192.323	54.36636
192.538	57.50815333
192.752	57.64561387
192.967	59.76392337
193.181	58.79426115
193.396	57.80643306
193.611	60.55272863
193.825	62.06725791
194.04	63.15244314
194.254	64.2265381
194.469	66.83895905
194.683	65.36815254
194.898	67.38193611
195.112	65.6161704
195.327	62.89940564
195.541	62.74142216
195.756	63.56310385
195.97	63.64318153
196.184	65.31444339
196.399	63.70159594
196.613	63.4122906
196.828	63.62024568
197.042	61.62835168
197.257	60.74845126
197.471	57.34462093
197.685	58.9775001
197.9	58.99906871
198.114	57.49484161
198.328	56.07788252
198.543	56.8643682
198.757	55.74637283
198.971	55.40755382
199.186	56.47495837
199.4	55.06814846
199.614	55.50130627
199.829	55.63624223
200.043	56.23420213
200.257	53.07861805
200.471	54.1226843
200.686	52.12204348
200.9	53.70346735
201.114	54.17392361
201.328	53.66601617
201.543	54.36333589
201.757	55.92102618
201.971	57.19326065
202.185	56.75654399
202.399	56.58729853
202.614	55.30442263
202.828	54.62455441
203.042	53.14857641
203.256	54.75898009
203.47	54.702851
203.684	56.16627337
203.899	56.77661114
204.113	56.99673718
204.327	54.54645733
204.541	54.02891404
204.755	55.15315113
204.969	54.99943381
205.183	56.80506845
205.397	56.60384263
205.611	56.94460031
205.825	58.60448997
206.039	56.32011406
206.253	54.97687293
206.467	55.87358817
206.681	55.7085527
206.895	57.24764493
207.109	59.66380304
207.323	61.8957202
207.537	61.65248728
207.751	60.94058117
207.965	60.9516421
208.179	58.41524498
208.393	57.11121955
208.607	57.68756769
208.821	59.17864476
209.035	59.39939491
209.249	62.73843742
209.463	63.90215018
209.677	63.08250361
209.891	61.95289977
210.104	61.72620619
210.318	60.30320258
210.532	63.02463242
210.746	64.33126064
210.96	64.65534075
211.174	64.07688456
211.387	63.57285821
211.601	61.70382483
211.815	61.12903853
212.029	61.66583426
212.243	62.92148125
212.456	62.55315766
212.67	64.62437059
212.884	63.0981631
213.098	61.03251812
213.311	64.07883065
213.525	61.6349141
213.739	59.78182645
213.953	57.23142825
214.166	57.69387528
214.38	59.40367832
214.594	57.46752002
214.807	58.07863586
215.021	56.6750435
215.235	55.81404103
215.448	54.19427332
215.662	53.70201278
215.876	53.49369989
216.089	55.86751652
216.303	57.68667063
216.516	60.53049103
216.73	60.17429194
216.944	57.58870298
217.157	55.28670738
217.371	55.29594411
217.584	53.58456246
217.798	52.04770744
218.011	54.03229103
218.225	54.9375124
218.439	55.05500262
218.652	50.96463678
218.866	51.00356556
219.079	52.01278204
219.293	51.74434293
219.506	50.83013563
219.719	52.44123664
219.933	52.39168827
220.146	53.00041025
220.36	53.42078858
220.573	53.14959162
220.787	52.5384758
221	51.18499382
221.214	48.87178126
221.427	50.60527209
221.64	52.03230148
221.854	51.71180974
222.067	51.66137728
222.28	52.41731271
222.494	53.24083021
222.707	52.10648239
222.92	53.70720599
223.134	53.04184738
223.347	52.61658537
223.56	52.00282475
223.774	50.465233
223.987	50.62761506
224.2	49.35008149
224.414	51.76428372
224.627	52.37713139
224.84	50.79371301
225.053	50.48201634
225.267	48.51055435
225.48	45.64196541
225.693	47.1012577
225.906	46.90554985
226.119	46.42349779
226.333	47.77392795
226.546	50.87706286
226.759	51.05530902
226.972	51.15011885
227.185	50.80115866
227.398	49.50130483
227.612	52.36458669
227.825	51.62800521
228.038	53.09991939
228.251	54.80214128
228.464	54.4346163
228.677	56.0459311
228.89	55.2744869
229.103	53.81580245
229.316	54.74762205
229.529	54.88947421
229.743	56.63562473
229.956	58.07037832
230.169	59.75597757
230.382	59.98432039
230.595	59.18539417
230.808	59.5063219
231.021	59.40333231
231.234	58.04161906
231.447	55.85376518
231.66	55.07463183
231.872	55.84663015
232.085	55.50172302
232.298	55.66150996
232.511	55.16804276
232.724	55.27725644
232.937	58.03890295
233.15	57.20467794
233.363	56.25686254
233.576	55.4787104
233.789	54.84371146
234.002	53.08105075
234.214	51.42210618
234.427	52.97474374
234.64	52.15925624
234.853	52.28812041
235.066	53.08288952
235.279	53.33080608
235.491	53.77527862
235.704	52.88091332
235.917	52.20121607
236.13	52.73838387
236.342	50.23013607
236.555	49.84599763
236.768	51.5654087
236.981	50.5065123
237.193	50.27713393
237.406	47.93190629
237.619	44.65977748
237.832	43.45581537
238.044	46.66984635
238.257	46.98886552
238.47	46.47830064
238.682	47.50618791
238.895	47.55494974
239.108	46.81683623
239.32	46.96292312
239.533	47.27291194
239.746	46.99962216
239.958	47.85948346
240.171	48.53202382
240.383	52.59470951
240.596	52.95472791
240.808	56.2900298
241.021	54.46507806
241.234	51.99868183
241.446	52.82329681
241.659	51.3172467
241.871	51.65104494
242.084	54.14736704
242.296	55.63998595
242.509	55.05309819
242.721	54.21239759
242.934	54.96785228
243.146	53.40392381
243.359	49.65900079
243.571	50.17885973
243.784	49.31273137
243.996	48.41693348
244.208	49.03612506
244.421	48.80635734
244.633	47.86686936
244.846	45.32322608
245.058	45.24809956
245.27	43.3283738
245.483	44.8481083
245.695	44.9224005
245.907	44.47951538
246.12	43.96521406
246.332	45.50700478
246.544	45.7446469
246.757	45.00048649
246.969	43.43031057
247.181	43.55377196
247.394	44.53781513
247.606	45.66970001
247.818	47.93993334
248.03	50.15380362
248.243	50.11164932
248.455	50.33061457
248.667	49.36334024
248.879	48.71227682
249.092	50.14024088
249.304	51.18972134
249.516	48.93974527
249.728	48.65978679
249.94	50.44840773
250.153	50.34986106
250.365	52.01451409
250.577	53.74935886
250.789	51.98090031
251.001	51.63650101
251.213	52.08609159
251.425	50.98680811
251.637	51.83462883
251.85	51.26350213
252.062	52.16326531
252.274	51.84641961
252.486	51.24096966
252.698	52.0007497
252.91	50.71631409
253.122	52.15521361
253.334	50.48938315
253.546	50.08482443
253.758	49.95014955
253.97	52.48726352
254.182	52.28302432
254.394	49.89179936
254.606	49.81974082
254.818	48.84170506
255.03	48.23166934
255.242	49.48074356
255.454	48.19854034
255.666	47.18261156
255.877	48.80715381
256.089	50.98893298
256.301	50.06506078
256.513	48.88979617
256.725	48.98257169
256.937	49.25487443
257.149	50.91718498
257.361	51.57960393
257.572	48.99958515
257.784	49.91411886
257.996	49.22664987
258.208	49.46997558
258.42	47.12813413
258.631	48.09203318
258.843	48.99584596
259.055	50.35371797
259.267	50.20032922
259.479	49.03752856
259.69	46.8211324
259.902	48.83061658
260.114	49.50114159
260.325	49.04772295
260.537	45.06221953
260.749	46.39961545
260.961	46.1278824
261.172	46.15706066
261.384	44.57407
261.596	42.91512792
261.807	43.50210261
262.019	45.66968613
262.23	45.03259274
262.442	46.17398103
262.654	43.64062659
262.865	45.84073168
263.077	45.01526794
263.288	45.87800614
263.5	44.76749878
263.712	46.1015725
263.923	46.62602825
264.135	47.22870191
264.346	45.70870185
264.558	45.72431078
264.769	47.05472406
264.981	48.48277436
265.192	48.40686678
265.404	48.61005268
265.615	48.94191213
265.827	47.50441181
266.038	46.45624103
266.25	45.93025071
266.461	45.24674013
266.673	45.8763686
266.884	46.61046058
267.095	48.29738034
267.307	47.32140008
267.518	47.8777859
267.73	46.04355775
267.941	47.3704232
268.152	44.79977492
268.364	44.82279361
268.575	46.29747314
268.786	45.21952848
268.998	43.96317221
269.209	43.06947077
269.42	42.11183149
269.632	41.43693325
269.843	40.07319591
270.054	40.53554371
270.265	39.81381916
270.477	41.02199498
270.688	41.48959004
270.899	41.95865932
271.11	41.91165153
271.322	42.41429054
271.533	42.54032871
271.744	43.16497104
271.955	41.96283973
272.166	41.92534838
272.378	39.93172035
272.589	39.43158969
272.8	40.65787479
273.011	39.75603241
273.222	43.62650709
273.433	43.99716052
273.644	44.11339141
273.856	44.5305921
274.067	44.12130683
274.278	45.09141892
274.489	43.5531995
274.7	45.84943446
274.911	45.58994912
275.122	46.54197357
275.333	46.85303298
275.544	47.41892875
275.755	46.09978354
275.966	44.8769887
276.177	43.88418732
276.388	44.69257149
276.599	44.92849104
276.81	45.70113295
277.021	47.42157697
277.232	44.79465138
277.443	44.15843751
277.654	42.56546346
277.865	43.24642926
278.076	41.92221079
278.287	41.94356653
278.497	41.90982186
278.708	41.04888588
278.919	41.1106401
279.13	40.08869308
279.341	38.30405068
279.552	36.79857527
279.763	36.04209118
279.973	34.21922879
280.184	33.66734072
280.395	34.87620782
280.606	35.22359324
280.817	35.4582639
281.027	34.44649501
281.238	33.73275341
281.449	33.71517834
281.66	33.98813178
281.87	34.57889016
282.081	32.72938582
282.292	31.76948759
282.503	32.69593094
282.713	32.8807249
282.924	32.6107993
283.135	32.79078024
283.345	33.7248824
283.556	34.72114172
283.767	35.00172318
283.977	34.72875963
284.188	35.35915997
284.399	35.35815079
284.609	34.21743484
284.82	33.52884216
285.03	33.5501116
285.241	33.00150417
285.451	35.89878464
285.662	35.73026261
285.873	34.8879417
286.083	36.42859098
286.294	36.95251204
286.504	37.9886601
286.715	38.10291586
286.925	37.28532158
287.136	37.72254684
287.346	37.82481084
287.557	40.31465363
287.767	39.56664189
287.978	37.79852659
288.188	39.06947449
288.399	39.70560735
288.609	38.25301998
288.819	36.81849818
289.03	37.03505962
289.24	35.49865297
289.451	36.00887465
289.661	37.34957193
289.871	34.81811433
290.082	34.67789773
290.292	35.41819213
290.502	34.81267085
290.713	33.72189468
290.923	32.66786451
291.133	32.79789278
291.344	33.18169138
291.554	33.25258432
291.764	32.81799305
291.974	31.92003646
292.185	30.57579682
292.395	29.64868328
292.605	29.1995366
292.815	28.22487907
293.026	27.78421137
293.236	28.85665558
293.446	28.52659371
293.656	29.14903397
293.866	27.4820542
294.077	26.27662873
294.287	25.93881275
294.497	25.48871266
294.707	24.42959354
294.917	23.8075563
295.127	22.56398874
295.337	21.64800301
295.548	21.76233858
295.758	20.83131374
295.968	19.80759999
296.178	18.92286205
296.388	18.00914084
296.598	17.86084247
296.808	17.58904684
297.018	16.62407733
297.228	16.20608993
297.438	15.62372008
297.648	15.02032193
297.858	14.72550142
298.068	13.69008057
298.278	13.37824339
298.488	13.43321005
298.698	13.23977367
298.908	12.97785368
299.118	12.53457551
299.328	12.08044465
299.538	12.05525996
299.748	12.01938576
299.957	11.43073531
300.167	11.0658119
300.377	10.75042636
300.587	10.63712931
300.797	10.39871937
301.007	10.35481458
301.217	10.14091717
301.426	10.10592213
301.636	9.97736968
301.846	9.92454687
302.056	9.70641216
302.266	9.47876576
302.475	9.54521157
302.685	9.39861365
302.895	9.02280622
303.105	8.90275287
303.314	8.78450648
303.524	8.69493617
303.734	8.72398596
303.944	8.68279449
304.153	8.50510111
304.363	8.35902914
304.573	8.26032266
304.782	8.22338037
304.992	8.23484784
305.202	8.18785505
305.411	8.08484435
305.621	8.06089273
305.831	7.97651199
306.04	7.90204571
306.25	7.86574757
306.459	7.85044997
306.669	7.8329018
306.878	7.77210638
307.088	7.71825416
307.298	7.65013722
307.507	7.55433906
307.717	7.52632041
307.926	7.47681821
308.136	7.42338078
308.345	7.41291589
308.555	7.43625252
308.764	7.4437135
308.974	7.45328286
309.183	7.43828665
309.392	7.35334951
309.602	7.3083116
309.811	7.24286642
310.021	7.16046105
310.23	7.16440528
310.44	7.13771525
310.649	7.09643237
310.858	7.07805131
311.068	7.05445372
311.277	7.05370936
311.486	7.04676838
311.696	7.058208
311.905	7.0880496
312.114	7.07087057
312.324	7.09592201
312.533	7.06801079
312.742	7.00740235
312.952	6.94007222
313.161	6.92364632
313.37	6.92460828
313.579	6.89367285
313.789	6.91384256
313.998	6.92403705
314.207	6.94053651
314.416	6.96216465
314.625	6.9285332
314.835	6.92092433
315.044	6.9270898
315.253	6.89530305
315.462	6.88418352
315.671	6.89316857
315.88	6.90279784
316.09	6.87885603
316.299	6.87494836
316.508	6.84154283
316.717	6.81609473
316.926	6.7839063
317.135	6.7688391
317.344	6.77666183
317.553	6.77680954
317.762	6.75615386
317.971	6.75234655
318.18	6.71978512
318.389	6.70725893
318.598	6.69887056
318.807	6.69764216
319.016	6.70438469
319.225	6.71546091
319.434	6.70899511
319.643	6.71956476
319.852	6.70916514
320.061	6.67192546
320.27	6.64854271
320.479	6.65628403
320.688	6.62014512
320.897	6.61817087
321.105	6.60990953
321.314	6.60882648
321.523	6.63108121
321.732	6.63719045
321.941	6.63972481
322.15	6.63676763
322.359	6.63996954
322.567	6.65669198
322.776	6.64583934
322.985	6.64931015
323.194	6.64514799
323.403	6.64320888
323.611	6.62250762
323.82	6.60413834
324.029	6.59003248
324.237	6.59708307
324.446	6.60444527
324.655	6.60340032
324.864	6.59625756
325.072	6.58761469
325.281	6.58824854
325.49	6.57699784
325.698	6.57884553
325.907	6.56375989
326.116	6.55749626
326.324	6.53996304
326.533	6.54290993
326.741	6.53221247
326.95	6.52594298
327.159	6.51187513
327.367	6.49540151
327.576	6.47902828
327.784	6.45355164
327.993	6.46293352
328.201	6.46588768
328.41	6.45874604
328.618	6.44374797
328.827	6.44143434
329.035	6.4467238
329.244	6.46189656
329.452	6.47328446
329.661	6.48032772
329.869	6.46628401
330.078	6.47413873
330.286	6.47924172
330.495	6.47180284
330.703	6.47762731
330.911	6.46385853
331.12	6.45284389
331.328	6.44229215
331.537	6.44394954
331.745	6.45385291
331.953	6.45533768
332.162	6.47084616
332.37	6.45804129
332.578	6.46104354
332.787	6.47633852
332.995	6.48752176
333.203	6.47335324
333.411	6.46536202
333.62	6.44421808
333.828	6.44741645
334.036	6.44575456
334.244	6.47443043
334.453	6.4643112
334.661	6.46747721
334.869	6.4719132
335.077	6.46587578
335.285	6.47505753
335.494	6.48463811
335.702	6.48921467
335.91	6.49053635
336.118	6.47831747
336.326	6.48319938
336.534	6.49566947
336.742	6.48836417
336.951	6.48940457
337.159	6.48401987
337.367	6.47453208
337.575	6.4967354
337.783	6.49837914
337.991	6.50501836
338.199	6.48832134
338.407	6.48075218
338.615	6.47993565
338.823	6.49478381
339.031	6.48447511
339.239	6.48922336
339.447	6.49574933
339.655	6.4981775
339.863	6.49821804
340.071	6.49590688
340.279	6.50290708
340.487	6.50971212
340.695	6.51398634
340.903	6.49763068
341.11	6.51547295
341.318	6.51677758
341.526	6.51576876
341.734	6.51464345
341.942	6.49968708
342.15	6.49850067
342.358	6.48986686
342.565	6.50454338
342.773	6.50796395
342.981	6.50662126
343.189	6.49615862
343.397	6.49709129
343.604	6.49846815
343.812	6.49423443
344.02	6.49122072
344.228	6.49710044
344.435	6.49326781
344.643	6.48302004
344.851	6.47353812
345.058	6.47517468
345.266	6.46042405
345.474	6.44808126
345.681	6.44432811
345.889	6.45421611
346.097	6.45992723
346.304	6.46363396
346.512	6.45688258
346.72	6.46587763
346.927	6.4721504
347.135	6.47808085
347.342	6.46644579
347.55	6.45910486
347.758	6.46672339
347.965	6.46594155
348.173	6.46439422
348.38	6.46662211
348.588	6.4658498
348.795	6.47011993
349.003	6.47962873
349.21	6.47938466
349.418	6.48057109
349.625	6.4992686
349.833	6.51204212
350.04	6.50853049
350.247	6.50088273
350.455	6.49953793
350.662	6.50662675
350.87	6.51802631
351.077	6.51605835
351.284	6.50256174
351.492	6.48745775
351.699	6.49678271
351.906	6.50316956
352.114	6.49670952
352.321	6.50095109
352.528	6.51154893
352.736	6.51388202
352.943	6.50688569
353.15	6.5009173
353.358	6.49754637
353.565	6.51525542
353.772	6.50627678
353.979	6.51708079
354.187	6.51483289
354.394	6.51576987
354.601	6.51583248
354.808	6.51902232
355.015	6.49340572
355.223	6.48768218
355.43	6.49030644
355.637	6.49831614
355.844	6.49927555
356.051	6.4961886
356.258	6.50115167
356.465	6.48234871
356.673	6.48073053
356.88	6.46652765
357.087	6.47161861
357.294	6.48045919
357.501	6.48974912
357.708	6.49204114
357.915	6.47457027
358.122	6.47562197
358.329	6.46001006
358.536	6.45444805
358.743	6.45826491
358.95	6.46066724
359.157	6.45659289
359.364	6.47456923
359.571	6.48900533
359.778	6.47983527
359.985	6.47616648
360.192	6.48920531
360.399	6.48929055
360.606	6.50053664
360.812	6.5122894
361.019	6.51436578
361.226	6.52315118
361.433	6.51612217
361.64	6.50610454
361.847	6.5065272
362.054	6.51545212
362.26	6.52820254
362.467	6.52881616
362.674	6.53000038
362.881	6.52572682
363.088	6.52436634
363.294	6.53219875
363.501	6.5377401
363.708	6.52648658
363.915	6.51288674
364.121	6.52495948
364.328	6.53211574
364.535	6.52438869
364.741	6.53109677
364.948	6.51282385
365.155	6.50935545
365.361	6.50240501
365.568	6.50191821
365.775	6.49934786
365.981	6.50255221
366.188	6.49018082
366.395	6.47885231
366.601	6.47759009
366.808	6.49188486
367.014	6.49004978
367.221	6.48958408
367.427	6.48105984
367.634	6.47222779
367.84	6.4605224
368.047	6.46886409
368.254	6.46752514
368.46	6.46036878
368.667	6.45371458
368.873	6.45594381
369.079	6.44380775
369.286	6.44331066
369.492	6.4452635
369.699	6.45417578
369.905	6.44207312
370.112	6.45359397
370.318	6.4516159
370.524	6.46366891
370.731	6.46783759
370.937	6.46867397
371.144	6.44592972
371.35	6.45179424
371.556	6.44926595
371.763	6.45745361
371.969	6.46110916
372.175	6.46469638
372.381	6.45762674
372.588	6.465046
372.794	6.47615585
373	6.47174207
373.206	6.47253555
373.413	6.47441266
373.619	6.48013153
373.825	6.49018193
374.031	6.47478773
374.238	6.48454704
374.444	6.47663531
374.65	6.47873755
374.856	6.48112664
375.062	6.48623506
375.268	6.48392238
375.475	6.4969927
375.681	6.50479973
375.887	6.5206253
376.093	6.52649893
376.299	6.51363903
376.505	6.52448676
376.711	6.54354506
376.917	6.54312018
377.123	6.53621188
377.329	6.54463523
377.535	6.55010386
377.741	6.54785704
377.947	6.54070478
378.153	6.53413502
378.359	6.54265211
378.565	6.53631163
378.771	6.5437097
378.977	6.55149164
379.183	6.54957297
379.389	6.54127211
379.595	6.53608491
379.801	6.5375016
380.007	6.5205408
380.213	6.51614916
380.418	6.52171439
380.624	6.5330309
380.83	6.53554854
381.036	6.51860963
381.242	6.52451821
381.448	6.53299708
