Data from carapace1_Reflection_09-44-28-629.txt Node
Date: Wed Dec 06 09:44:28 AEST 2023
User: uqkchene_local
Spectrometer: USB4E02642
Trigger mode: 4
Integration Time (sec): 1.700000E-2
Scans to average: 10
Electric dark correction enabled: true
Nonlinearity correction enabled: false
Boxcar width: 10
XAxis mode: Wavelengths
Number of Pixels in Spectrum: 3648
>>>>>Begin Spectral Data<<<<<
179.217	13.25757576
179.432	-77.10843373
179.647	6.97831978
179.862	-10.74879227
180.077	-11.3317757
180.293	1.83044316
180.508	-32.29166667
180.723	-47.60638298
180.938	2707.38993711
181.153	520.15192136
181.368	432.23238482
181.583	428.64089184
181.798	404.86946067
182.013	386.78725121
182.228	395.55178864
182.443	387.97740452
182.658	389.34971611
182.873	387.01049499
183.088	389.14880023
183.303	391.18587652
183.518	396.42251303
183.733	400.40482392
183.948	404.41710259
184.162	409.9132244
184.377	405.44482141
184.592	400.68261633
184.807	394.26828273
185.022	396.05160738
185.237	398.20008916
185.452	394.16182692
185.667	396.73647532
185.882	399.97653938
186.096	393.34101382
186.311	397.51021725
186.526	400.98099436
186.741	403.70296237
186.956	405.25136612
187.17	403.05306211
187.385	403.77957614
187.6	402.41445417
187.815	406.12970254
188.03	404.04005525
188.244	402.80260099
188.459	403.07377049
188.674	396.50251719
188.889	398.90527895
189.103	398.83625606
189.318	406.22680637
189.533	405.91216216
189.747	405.82843244
189.962	406.62982418
190.177	404.42232376
190.391	403.60766833
190.606	404.24840163
190.821	400.50815198
191.035	401.32827666
191.25	394.05617819
191.465	399.45360086
191.679	405.76264393
191.894	407.94698355
192.109	407.81911786
192.323	403.34810172
192.538	403.86588691
192.752	403.86415607
192.967	402.7621456
193.181	402.64537995
193.396	397.68215417
193.611	399.50388418
193.825	390.87293388
194.04	391.16564628
194.254	389.31701472
194.469	390.53123716
194.683	393.14255231
194.898	391.52301799
195.112	390.66424547
195.327	393.99869872
195.541	390.69329442
195.756	389.80167579
195.97	384.22599283
196.184	380.92913955
196.399	380.41201576
196.613	378.92824557
196.828	379.91985607
197.042	381.6429653
197.257	382.15226121
197.471	383.37567639
197.685	382.42395375
197.9	385.46995836
198.114	384.60916887
198.328	387.16880271
198.543	386.78212551
198.757	391.97019868
198.971	389.8
199.186	387.7363849
199.4	389.09994645
199.614	390.92215609
199.829	385.44305907
200.043	381.02605329
200.257	385.96056656
200.471	384.96848042
200.686	378.1583225
200.9	375.88054387
201.114	375.57489826
201.328	371.84883349
201.543	370.43313602
201.757	368.74206047
201.971	364.27070263
202.185	365.27786509
202.399	363.4841784
202.614	362.19015966
202.828	359.24996922
203.042	357.45997311
203.256	352.79916973
203.47	355.43024101
203.684	354.1573812
203.899	354.74398501
204.113	357.90057094
204.327	358.25120156
204.541	357.89706241
204.755	355.67906836
204.969	358.75929085
205.183	359.8678992
205.397	359.42035586
205.611	359.25684287
205.825	359.28762055
206.039	356.67719615
206.253	356.67116307
206.467	356.26537469
206.681	356.43110497
206.895	354.48725637
207.109	351.2212132
207.323	354.13820992
207.537	354.42842585
207.751	354.20534164
207.965	353.64006902
208.179	350.9682474
208.393	348.23665418
208.607	342.54746835
208.821	341.98294672
209.035	346.38825857
209.249	343.11113027
209.463	341.15243448
209.677	342.81538018
209.891	344.98636733
210.104	341.94629907
210.318	343.85667015
210.532	345.68568598
210.746	346.52241339
210.96	347.52925688
211.174	345.83091479
211.387	348.93258756
211.601	352.43819292
211.815	351.76010623
212.029	352.28036557
212.243	354.1250074
212.456	352.43459517
212.67	354.9493897
212.884	357.81746746
213.098	358.51790551
213.311	358.78910951
213.525	354.86329866
213.739	359.11738081
213.953	358.93511565
214.166	355.49770245
214.38	353.80959431
214.594	357.81156021
214.807	358.87334537
215.021	358.58514416
215.235	357.50074873
215.448	357.1020518
215.662	357.73057961
215.876	357.94878755
216.089	357.08045632
216.303	353.88310529
216.516	353.12072961
216.73	349.83065324
216.944	349.44369024
217.157	349.37107849
217.371	347.00335412
217.584	348.62857312
217.798	350.45411232
218.011	354.49737841
218.225	349.9510502
218.439	349.42973101
218.652	353.53101425
218.866	352.30840396
219.079	349.31133133
219.293	348.49815021
219.506	348.31788585
219.719	347.85802252
219.933	345.25576117
220.146	345.19147084
220.36	342.97875395
220.573	342.24088594
220.787	344.81422811
221	345.67371584
221.214	348.61387006
221.427	349.83769082
221.64	347.7568762
221.854	348.5759771
222.067	345.42788628
222.28	342.56178161
222.494	341.01012702
222.707	342.13895282
222.92	341.5468768
223.134	340.8007282
223.347	339.9327406
223.56	340.09352018
223.774	336.78809278
223.987	337.21563094
224.2	336.8172905
224.414	338.98052061
224.627	336.28869254
224.84	334.75739611
225.053	333.20559192
225.267	331.65855753
225.48	329.52065693
225.693	326.41157322
225.906	322.99599755
226.119	322.66261853
226.333	317.99482712
226.546	316.87198787
226.759	318.45409187
226.972	314.44834799
227.185	313.34912478
227.398	310.32860757
227.612	310.04451351
227.825	307.69945555
228.038	306.59559513
228.251	305.22033634
228.464	302.27960021
228.677	300.69938058
228.89	298.47838165
229.103	297.96624239
229.316	296.969507
229.529	296.471163
229.743	295.47875
229.956	293.75093344
230.169	290.09457136
230.382	288.37439507
230.595	289.30283171
230.808	291.40165918
231.021	290.62422744
231.234	285.12512148
231.447	285.66458151
231.66	284.91083511
231.872	284.65878885
232.085	284.2313616
232.298	283.76624934
232.511	282.87508973
232.724	284.82353224
232.937	284.29723225
233.15	285.92604283
233.363	285.92229467
233.576	285.76715853
233.789	287.41078412
234.002	286.53369914
234.214	285.8998257
234.427	285.9681165
234.64	287.68547799
234.853	287.63111675
235.066	283.96811231
235.279	281.9909578
235.491	281.52695892
235.704	285.49814342
235.917	285.96183612
236.13	284.67640969
236.342	284.57513655
236.555	284.43068231
236.768	283.59359962
236.981	283.82960827
237.193	280.24631359
237.406	280.66471373
237.619	278.48653119
237.832	279.47906293
238.044	279.35081237
238.257	278.8225143
238.47	279.56844955
238.682	278.24920837
238.895	278.24839411
239.108	278.16066102
239.32	279.634505
239.533	281.56542726
239.746	279.78741132
239.958	281.81741681
240.171	279.15399601
240.383	278.65183184
240.596	280.11401504
240.808	281.32795392
241.021	279.45682451
241.234	280.29760493
241.446	281.07049297
241.659	282.21517472
241.871	280.37862285
242.084	280.43288099
242.296	277.17866952
242.509	277.58897418
242.721	276.70375682
242.934	275.79084696
243.146	276.07643872
243.359	276.68766563
243.571	277.78748893
243.784	278.3449802
243.996	277.36782355
244.208	279.98109773
244.421	280.54971006
244.633	277.34667901
244.846	276.41180276
245.058	275.5415287
245.27	273.53068773
245.483	273.34867848
245.695	274.30632502
245.907	274.04735607
246.12	272.61663985
246.332	272.43968997
246.544	272.35354928
246.757	273.20000924
246.969	275.16012155
247.181	274.80216333
247.394	276.26363551
247.606	277.54463442
247.818	276.98317308
248.03	274.02031761
248.243	272.20610085
248.455	272.33410943
248.667	270.96987254
248.879	269.03618058
249.092	271.21159299
249.304	270.881684
249.516	270.09234401
249.728	270.09935615
249.94	270.56013141
250.153	268.55251726
250.365	268.42953849
250.577	268.77283939
250.789	269.96756234
251.001	269.63761804
251.213	269.92291152
251.425	268.2353343
251.637	265.73865429
251.85	265.02468028
252.062	263.14412328
252.274	262.58125557
252.486	262.2152039
252.698	261.03871764
252.91	260.19410006
253.122	260.51560231
253.334	260.26986012
253.546	259.6179111
253.758	260.52718323
253.97	259.60167119
254.182	260.45137671
254.394	260.01732608
254.606	260.47208322
254.818	258.16377658
255.03	258.68185783
255.242	258.41376462
255.454	257.37007362
255.666	255.02451507
255.877	253.98168701
256.089	255.79510507
256.301	253.79391448
256.513	253.78457829
256.725	253.44424801
256.937	255.76228324
257.149	253.98087155
257.361	255.21511972
257.572	254.63611803
257.784	254.69645265
257.996	255.28665513
258.208	254.41689064
258.42	254.8615793
258.631	252.64348878
258.843	253.41939913
259.055	252.17881837
259.267	253.19186359
259.479	255.08271523
259.69	254.30744646
259.902	254.47010249
260.114	255.81009435
260.325	256.26203634
260.537	255.79036792
260.749	255.18029298
260.961	255.33540399
261.172	254.16580246
261.384	251.99241959
261.596	254.72903252
261.807	253.01072847
262.019	253.50513146
262.23	253.35327263
262.442	253.97162976
262.654	252.57689195
262.865	252.91407951
263.077	254.08140524
263.288	251.88295012
263.5	251.95147891
263.712	251.50481942
263.923	250.53822277
264.135	249.26932964
264.346	249.57914449
264.558	251.2274004
264.769	248.85508828
264.981	247.95150178
265.192	249.89363778
265.404	249.65661479
265.615	249.93120955
265.827	250.19338413
266.038	248.63358956
266.25	249.73421734
266.461	248.1281214
266.673	246.50917588
266.884	246.03537173
267.095	245.95244381
267.307	245.8611898
267.518	246.64935801
267.73	247.6357882
267.941	247.26137092
268.152	246.91166516
268.364	245.14473586
268.575	246.12528525
268.786	246.74777682
268.998	245.89392245
269.209	248.75767622
269.42	249.28931812
269.632	248.06334081
269.843	248.82860781
270.054	250.250789
270.265	251.14246555
270.477	253.24957651
270.688	254.12434392
270.899	255.88997315
271.11	256.61397198
271.322	256.93556925
271.533	258.42976931
271.744	258.91856591
271.955	258.79547429
272.166	258.29546308
272.378	260.06244812
272.589	260.79760284
272.8	261.75675676
273.011	263.79105098
273.222	261.89848077
273.433	262.26279685
273.644	260.92440869
273.856	261.04897051
274.067	262.0158989
274.278	262.09325946
274.489	263.1025603
274.7	262.71144279
274.911	262.17863842
275.122	261.56255708
275.333	262.44472463
275.544	264.46189164
275.755	265.05497941
275.966	266.85063975
276.177	267.10045072
276.388	268.39948949
276.599	270.45885723
276.81	271.3494133
277.021	273.53210666
277.232	274.76703115
277.443	274.29828511
277.654	276.48807277
277.865	277.9960838
278.076	281.45176787
278.287	283.21862348
278.497	284.39710145
278.708	285.89203155
278.919	287.43615238
279.13	288.76614481
279.341	290.88083208
279.552	291.34634397
279.763	293.24914281
279.973	294.52793564
280.184	296.23866281
280.395	295.67633911
280.606	297.88908945
280.817	299.55447345
281.027	300.80164586
281.238	302.98496823
281.449	303.13365087
281.66	306.52847932
281.87	308.73887424
282.081	311.83598455
282.292	314.93017924
282.503	315.35928019
282.713	320.02584794
282.924	326.23369681
283.135	327.95439949
283.345	331.22171458
283.556	334.6016066
283.767	335.81081081
283.977	340.79120734
284.188	343.81638343
284.399	345.95251843
284.609	351.37791721
284.82	356.9840652
285.03	359.7148587
285.241	362.79741199
285.451	362.09167666
285.662	364.29978676
285.873	365.76225889
286.083	365.05350195
286.294	367.69746995
286.504	368.41248653
286.715	367.92937588
286.925	367.75179098
287.136	365.26096471
287.346	361.65280665
287.557	362.68077315
287.767	360.39561707
287.978	359.60528135
288.188	361.30933086
288.399	358.15832913
288.609	356.29805724
288.819	355.52607606
289.03	350.63372355
289.24	348.81198115
289.451	344.79832268
289.661	340.1152114
289.871	341.56270591
290.082	337.80113933
290.292	336.99168507
290.502	334.53071306
290.713	329.39977182
290.923	326.27195004
291.133	320.51368879
291.344	317.06947103
291.554	314.31119262
291.764	310.37797749
291.974	304.87907158
292.185	300.13715711
292.395	296.94512056
292.605	288.3640553
292.815	283.26479965
293.026	278.75272001
293.236	273.08502489
293.446	267.93561443
293.656	260.30926987
293.866	254.19113165
294.077	247.97546492
294.287	239.67977172
294.497	231.95688976
294.707	223.72849244
294.917	215.86792809
295.127	208.83997706
295.337	201.09016537
295.548	193.91825068
295.758	186.21069255
295.968	178.94112061
296.178	171.66065553
296.388	164.3198896
296.598	157.10726424
296.808	150.749858
297.018	144.67028043
297.228	138.61125084
297.438	132.32408957
297.648	126.5196622
297.858	121.0240258
298.068	116.00547622
298.278	111.04326357
298.488	106.57995916
298.698	102.46405394
298.908	98.37117501
299.118	94.5668827
299.328	90.83095691
299.538	87.26347058
299.748	84.08433247
299.957	80.96172469
300.167	78.18582974
300.377	75.28327891
300.587	72.56690998
300.797	70.08782009
301.007	67.93386041
301.217	65.63170282
301.426	63.60161126
301.636	61.57932926
301.846	59.61910797
302.056	57.83986694
302.266	56.09823302
302.475	54.36739487
302.685	52.90711619
302.895	51.32974107
303.105	49.89047971
303.314	48.5682384
303.524	47.09015063
303.734	45.86815175
303.944	44.65242573
304.153	43.38213834
304.363	42.30156262
304.573	41.17902453
304.782	40.11806441
304.992	39.24205039
305.202	38.38048779
305.411	37.4709446
305.621	36.59155248
305.831	35.79807554
306.04	34.9954488
306.25	34.28844768
306.459	33.55805835
306.669	32.87517094
306.878	32.22031833
307.088	31.60757202
307.298	30.99542756
307.507	30.42178962
307.717	29.88430963
307.926	29.34753798
308.136	28.85018441
308.345	28.41705911
308.555	28.00606915
308.764	27.60635215
308.974	27.21264335
309.183	26.84997833
309.392	26.40204875
309.602	26.02499767
309.811	25.6673888
310.021	25.32303288
310.23	24.97114446
310.44	24.63944383
310.649	24.3361438
310.858	24.03107482
311.068	23.76021963
311.277	23.54929776
311.486	23.28332612
311.696	23.0393013
311.905	22.79922007
312.114	22.58062453
312.324	22.42351581
312.533	22.19544737
312.742	21.99873948
312.952	21.7791384
313.161	21.56656597
313.37	21.37970536
313.579	21.22410443
313.789	21.04421285
313.998	20.86434433
314.207	20.67945511
314.416	20.54694929
314.625	20.39905479
314.835	20.26392243
315.044	20.11111485
315.253	19.99434072
315.462	19.85108786
315.671	19.707422
315.88	19.57133452
316.09	19.43115628
316.299	19.31177867
316.508	19.17949473
316.717	19.05787535
316.926	18.94461714
317.135	18.81001168
317.344	18.71938234
317.553	18.64892505
317.762	18.53707065
317.971	18.48230278
318.18	18.46423074
318.389	18.41181589
318.598	18.38169557
318.807	18.31329036
319.016	18.21786559
319.225	18.12634181
319.434	18.03905647
319.643	17.90579643
319.852	17.75365103
320.061	17.6085771
320.27	17.45511803
320.479	17.29729772
320.688	17.12016226
320.897	16.95842282
321.105	16.79757698
321.314	16.65399719
321.523	16.54234208
321.732	16.44786641
321.941	16.34067693
322.15	16.24454559
322.359	16.14630658
322.567	16.01437656
322.776	15.9106584
322.985	15.81772205
323.194	15.73878417
323.403	15.67372275
323.611	15.60016796
323.82	15.53330363
324.029	15.49041861
324.237	15.4689752
324.446	15.43993801
324.655	15.43906267
324.864	15.43995284
325.072	15.43327363
325.281	15.42998482
325.49	15.43625375
325.698	15.45286142
325.907	15.4366618
326.116	15.41342751
326.324	15.39487533
326.533	15.40528183
326.741	15.37651878
326.95	15.37096744
327.159	15.36890116
327.367	15.34795699
327.576	15.32637938
327.784	15.30052129
327.993	15.29732445
328.201	15.28488519
328.41	15.27951351
328.618	15.27637417
328.827	15.26500207
329.035	15.23838697
329.244	15.23162072
329.452	15.2377119
329.661	15.23090159
329.869	15.21818933
330.078	15.19982897
330.286	15.22181962
330.495	15.22905093
330.703	15.22737724
330.911	15.21299475
331.12	15.2039294
331.328	15.19570613
331.537	15.18227464
331.745	15.17097722
331.953	15.16448404
332.162	15.17078808
332.37	15.16660692
332.578	15.17238475
332.787	15.17409768
332.995	15.1710693
333.203	15.15251681
333.411	15.13972601
333.62	15.12070023
333.828	15.10251207
334.036	15.10998544
334.244	15.11489859
334.453	15.12385817
334.661	15.08482293
334.869	15.07394897
335.077	15.05842086
335.285	15.05336603
335.494	15.03629057
335.702	15.02381837
335.91	15.01600338
336.118	15.00608561
336.326	15.00507792
336.534	15.00361162
336.742	14.99643279
336.951	15.0031056
337.159	14.97761616
337.367	14.96155229
337.575	14.96918978
337.783	14.98170671
337.991	14.98606234
338.199	14.97139932
338.407	14.95525328
338.615	14.92463927
338.823	14.90952036
339.031	14.91839788
339.239	14.90453394
339.447	14.89601377
339.655	14.8904052
339.863	14.89777118
340.071	14.8929234
340.279	14.88129933
340.487	14.87449089
340.695	14.86415346
340.903	14.85020605
341.11	14.8430479
341.318	14.80891664
341.526	14.80600731
341.734	14.79988372
341.942	14.78919624
342.15	14.75582752
342.358	14.74786594
342.565	14.73996224
342.773	14.73314484
342.981	14.73386352
343.189	14.72344598
343.397	14.70406258
343.604	14.68546419
343.812	14.67465527
344.02	14.64474723
344.228	14.62827973
344.435	14.62798998
344.643	14.629798
344.851	14.61209552
345.058	14.6087541
345.266	14.59701736
345.474	14.58208738
345.681	14.57261189
345.889	14.56070589
346.097	14.54641502
346.304	14.5359266
346.512	14.53450023
346.72	14.52545796
346.927	14.52940491
347.135	14.52077359
347.342	14.50793646
347.55	14.50609074
347.758	14.48716798
347.965	14.48917793
348.173	14.4875822
348.38	14.49035184
348.588	14.48551332
348.795	14.47484986
349.003	14.46240724
349.21	14.46358931
349.418	14.45027829
349.625	14.44575585
349.833	14.45648566
350.04	14.46174602
350.247	14.46485059
350.455	14.46386385
350.662	14.47267881
350.87	14.48109378
351.077	14.4797303
351.284	14.47164658
351.492	14.46410855
351.699	14.47617406
351.906	14.47310919
352.114	14.48785315
352.321	14.49765586
352.528	14.50099461
352.736	14.51837065
352.943	14.51854727
353.15	14.52274051
353.358	14.52064123
353.565	14.52810341
353.772	14.52412478
353.979	14.52370595
354.187	14.50620427
354.394	14.50522049
354.601	14.50579236
354.808	14.49809108
355.015	14.48182647
355.223	14.4675677
355.43	14.45439364
355.637	14.43761414
355.844	14.43311328
356.051	14.40164565
356.258	14.38665814
356.465	14.36254332
356.673	14.34920751
356.88	14.31694931
357.087	14.28288727
357.294	14.25607252
357.501	14.23363497
357.708	14.21754323
357.915	14.18359344
358.122	14.15944194
358.329	14.12736728
358.536	14.10271918
358.743	14.07639575
358.95	14.05323851
359.157	14.03192801
359.364	14.00670469
359.571	13.98536066
359.778	13.96161958
359.985	13.95251266
360.192	13.92360243
360.399	13.9146231
360.606	13.89067525
360.812	13.86669231
361.019	13.83591142
361.226	13.8165087
361.433	13.80294261
361.64	13.79349027
361.847	13.78142771
362.054	13.76236251
362.26	13.75204258
362.467	13.73926511
362.674	13.73138576
362.881	13.71751559
363.088	13.69595151
363.294	13.68425987
363.501	13.67862643
363.708	13.67652344
363.915	13.67249831
364.121	13.68148226
364.328	13.67368214
364.535	13.68896825
364.741	13.68804633
364.948	13.68982301
365.155	13.7077078
365.361	13.71097393
365.568	13.72517361
365.775	13.72413567
365.981	13.72805996
366.188	13.73091118
366.395	13.74112466
366.601	13.75165822
366.808	13.77737762
367.014	13.78699923
367.221	13.79844778
367.427	13.81387077
367.634	13.82000001
367.84	13.81357205
368.047	13.81613136
368.254	13.81156221
368.46	13.80662028
368.667	13.81150295
368.873	13.81037475
369.079	13.80052162
369.286	13.7955155
369.492	13.79478765
369.699	13.80231152
369.905	13.79293783
370.112	13.79598623
370.318	13.80309723
370.524	13.80307771
370.731	13.79684041
370.937	13.7950597
371.144	13.77802381
371.35	13.77011228
371.556	13.76776686
371.763	13.75927984
371.969	13.74705866
372.175	13.74657283
