Data from areia_Reflection_00002.txt Node
Date: Thu Apr 11 13:49:36 AEST 2024
User: uqkchene_local
Spectrometer: USB4E02642
Trigger mode: 4
Integration Time (sec): 2.541000E-2
Scans to average: 101
Electric dark correction enabled: true
Nonlinearity correction enabled: false
Boxcar width: 10
XAxis mode: Wavelengths
Number of Pixels in Spectrum: 3648
>>>>>Begin Spectral Data<<<<<
179.217	63.09550946
179.432	63.32819723
179.647	59.13130974
179.862	57.1141919
180.077	73.4084507
180.293	71.10619469
180.508	83.08823529
180.723	56.6552901
180.938	31.78216829
181.153	23.58266117
181.368	18.28912002
181.583	13.36418587
181.798	8.62344299
182.013	6.7914905
182.228	8.71826765
182.443	6.69406929
182.658	7.24932836
182.873	5.84249652
183.088	8.34338418
183.303	4.99645761
183.518	3.86903825
183.733	4.38945139
183.948	3.92146154
184.162	3.31985256
184.377	3.215879
184.592	1.53717476
184.807	1.71287002
185.022	1.04397278
185.237	1.95724757
185.452	1.03049741
185.667	0.23709267
185.882	-0.06131795
186.096	0.75528414
186.311	0.64614796
186.526	0.19486784
186.741	-0.66336922
186.956	-0.50753494
187.17	-1.82320767
187.385	-1.66663414
187.6	-1.92146219
187.815	-0.63187185
188.03	-0.82916506
188.244	-0.39983853
188.459	-0.69661671
188.674	-0.52911067
188.889	-0.03665265
189.103	0.26528281
189.318	1.06602013
189.533	1.25420148
189.747	1.10828594
189.962	1.89286609
190.177	1.9550418
190.391	2.20302293
190.606	0.57365808
190.821	0.34068253
191.035	-0.37862607
191.25	-0.52898692
191.465	-1.09369448
191.679	0.26705132
191.894	0.09826272
192.109	-0.01770782
192.323	-0.60691768
192.538	-0.99399626
192.752	-1.55831605
192.967	-1.89329797
193.181	-2.34210257
193.396	-3.07029246
193.611	-2.1659108
193.825	-2.10065015
194.04	-1.01118053
194.254	-0.51037073
194.469	-0.81233933
194.683	-0.67711317
194.898	-1.37234327
195.112	-1.63917376
195.327	-1.67374417
195.541	-1.15737416
195.756	-1.19508052
195.97	-0.40126969
196.184	0.49041107
196.399	1.14559508
196.613	0.30082825
196.828	-0.0743349
197.042	0.8548322
197.257	1.34434052
197.471	1.05605964
197.685	1.94311462
197.9	1.76070802
198.114	2.09741885
198.328	0.5677812
198.543	-0.98126507
198.757	-1.9011194
198.971	-1.69896123
199.186	-0.32572694
199.4	-0.66034604
199.614	0.41425171
199.829	0.225123
200.043	1.14027578
200.257	0.62131097
200.471	-0.8577621
200.686	-1.00194874
200.9	-2.15264188
201.114	-0.75581075
201.328	0.08259457
201.543	-0.55047223
201.757	-1.08100076
201.971	-1.21404211
202.185	-1.85658575
202.399	-2.57171304
202.614	-3.59527187
202.828	-1.8944826
203.042	-0.74993388
203.256	-0.00186811
203.47	-0.52942602
203.684	-2.52826544
203.899	-1.98025399
204.113	-2.66968326
204.327	-2.47290862
204.541	-3.9298364
204.755	-2.59939403
204.969	-1.77988727
205.183	-1.44078325
205.397	-1.14882507
205.611	-1.45393986
205.825	-1.59753883
206.039	-1.39342598
206.253	-0.61672877
206.467	-0.22254511
206.681	0.32738313
206.895	1.92967255
207.109	2.29062276
207.323	1.40963189
207.537	1.20429953
207.751	1.45106902
207.965	1.80629592
208.179	2.90625394
208.393	2.99728997
208.607	3.10013717
208.821	3.937856
209.035	4.75846109
209.249	3.97382208
209.463	4.12543352
209.677	2.86854034
209.891	2.79616298
210.104	2.00193972
210.318	2.2739301
210.532	2.69091042
210.746	2.41175181
210.96	2.90019239
211.174	2.52779129
211.387	2.11370657
211.601	1.9643244
211.815	1.83641526
212.029	0.50381957
212.243	0.33639256
212.456	-0.40053405
212.67	-1.08731466
212.884	-1.02494577
213.098	-0.77221458
213.311	-1.2114302
213.525	-0.90085259
213.739	0.03203588
213.953	0.38358402
214.166	1.25448666
214.38	1.32179637
214.594	1.81380585
214.807	1.0758916
215.021	0.31356798
215.235	0.48343025
215.448	0.00529661
215.662	0.42188944
215.876	0.53965601
216.089	0.05905033
216.303	-0.20500276
216.516	0.14685291
216.73	0.29945723
216.944	1.27829426
217.157	1.02625817
217.371	1.41686554
217.584	1.44755139
217.798	1.01028873
218.011	0.05084315
218.225	-1.05047749
218.439	-2.30062401
218.652	-2.08641508
218.866	-1.65084179
219.079	-1.89030005
219.293	-1.61985539
219.506	-1.1664008
219.719	-1.2654533
219.933	-1.2691616
220.146	-1.6189953
220.36	-1.55460017
220.573	-0.36388721
220.787	0.30811602
221	0.4357857
221.214	0.44425386
221.427	-0.97471614
221.64	-0.69921513
221.854	-1.37200478
222.067	-1.16664039
222.28	-1.18348337
222.494	-1.3001912
222.707	0.09501598
222.92	0.65560862
223.134	0.07287642
223.347	-0.04920091
223.56	1.10134384
223.774	1.09961949
223.987	1.82536348
224.2	1.76994111
224.414	1.7003529
224.627	2.30392239
224.84	2.36698327
225.053	2.18770764
225.267	1.85418811
225.48	1.2169197
225.693	0.58069319
225.906	2.28324743
226.119	2.34383945
226.333	2.91863983
226.546	2.30415503
226.759	2.28872082
226.972	2.9936108
227.185	1.89477861
227.398	2.41262497
227.612	1.84532067
227.825	1.14783132
228.038	-0.37061882
228.251	-0.49362333
228.464	-0.84515186
228.677	-1.0159751
228.89	0.7086839
229.103	-0.21236432
229.316	-0.36623268
229.529	-0.41460907
229.743	-0.83739111
229.956	-0.39133002
230.169	-0.20940804
230.382	-1.16124185
230.595	-1.93371576
230.808	-2.67143991
231.021	-3.21387989
231.234	-1.85996542
231.447	-1.8471252
231.66	-1.70424403
231.872	-2.09995036
232.085	-1.37589884
232.298	-1.08306788
232.511	-0.95657852
232.724	-1.25681726
232.937	-2.30221918
233.15	-2.88472514
233.363	-4.91681029
233.576	-5.11701706
233.789	-5.49510789
234.002	-6.14527934
234.214	-5.70487284
234.427	-5.19545606
234.64	-5.11702234
234.853	-4.56048246
235.066	-4.45421685
235.279	-4.11068913
235.491	-2.94205199
235.704	-4.47188667
235.917	-4.71188273
236.13	-4.67525433
236.342	-5.09783903
236.555	-5.7349142
236.768	-6.17853253
236.981	-5.96598639
237.193	-6.34091375
237.406	-5.83038869
237.619	-4.06813627
237.832	-3.71373819
238.044	-3.3780214
238.257	-3.14139559
238.47	-2.93839481
238.682	-2.54474633
238.895	-3.52334621
239.108	-2.08988083
239.32	-3.15470977
239.533	-1.97826736
239.746	-2.88666583
239.958	-3.64090245
240.171	-3.20121
240.383	-3.55212475
240.596	-3.86256072
240.808	-3.39174587
241.021	-3.65523116
241.234	-3.0578949
241.446	-3.28429854
241.659	-3.07192461
241.871	-2.90117582
242.084	-4.48452884
242.296	-4.60469566
242.509	-5.00173343
242.721	-4.9410691
242.934	-4.09434523
243.146	-4.70645932
243.359	-3.85895192
243.571	-5.01566902
243.784	-4.08494393
243.996	-4.60602178
244.208	-3.78798813
244.421	-4.12775465
244.633	-3.68498029
244.846	-3.66360036
245.058	-2.77733363
245.27	-2.49159108
245.483	-2.1472002
245.695	-2.38956588
245.907	-2.24530247
246.12	-0.52657302
246.332	-0.94676417
246.544	0.18577495
246.757	0.37741146
246.969	1.24917312
247.181	1.59963085
247.394	0.61392493
247.606	0.67374848
247.818	-0.07882657
248.03	-0.09352204
248.243	-0.54166473
248.455	-0.90608661
248.667	-0.32089357
248.879	0.69081433
249.092	-0.50032937
249.304	-0.06371307
249.516	-1.17473847
249.728	-1.30546286
249.94	-1.40448574
250.153	-1.52286614
250.365	-1.67696109
250.577	-1.60520808
250.789	-0.86002281
251.001	-1.38800675
251.213	-1.35390573
251.425	-1.08146414
251.637	-1.80072772
251.85	-1.26816055
252.062	-1.14570055
252.274	-0.16634618
252.486	0.1442607
252.698	-0.18905897
252.91	-0.80109059
253.122	-1.07131925
253.334	-1.17844861
253.546	-0.2922604
253.758	-0.55410096
253.97	-0.10135851
254.182	0.08006042
254.394	-0.55011669
254.606	-0.86840247
254.818	-0.76449833
255.03	-2.32431203
255.242	-2.3779323
255.454	-2.51401728
255.666	-2.61525895
255.877	-2.82011153
256.089	-2.94282469
256.301	-2.96583733
256.513	-3.2731857
256.725	-3.42115253
256.937	-3.81814304
257.149	-3.35961812
257.361	-2.16588837
257.572	-2.30256842
257.784	-1.63335641
257.996	-1.71338648
258.208	-2.16922287
258.42	-2.07749938
258.631	-2.42531534
258.843	-0.73213062
259.055	-0.47461401
259.267	-0.58972076
259.479	0.07582275
259.69	-0.21055668
259.902	0.04340089
260.114	-0.05209162
260.325	-0.65236844
260.537	-0.62315608
260.749	-1.15344535
260.961	-1.25297225
261.172	-1.82155338
261.384	-1.98568033
261.596	-1.971871
261.807	-1.89949062
262.019	-2.20650353
262.23	-3.03443524
262.442	-3.34356092
262.654	-3.32949475
262.865	-3.23383085
263.077	-3.05291043
263.288	-3.36577627
263.5	-3.07703363
263.712	-3.17446575
263.923	-3.80370231
264.135	-3.98618277
264.346	-4.46773542
264.558	-5.13029316
264.769	-5.63717217
264.981	-5.33588187
265.192	-5.87371081
265.404	-6.02880085
265.615	-5.75472113
265.827	-5.78750402
266.038	-5.4723679
266.25	-5.49031681
266.461	-5.7559108
266.673	-5.02789249
266.884	-4.98000464
267.095	-4.43678687
267.307	-4.3182013
267.518	-4.9031063
267.73	-5.16193182
267.941	-5.27657548
268.152	-4.72722218
268.364	-4.6344999
268.575	-3.93032358
268.786	-2.92695657
268.998	-2.21001966
269.209	-1.68861327
269.42	-1.67073121
269.632	-0.95159399
269.843	0.04103134
270.054	0.35959893
270.265	0.15360781
270.477	0.38260642
270.688	-0.02996821
270.899	0.94595812
271.11	0.39580878
271.322	0.62387568
271.533	0.80108846
271.744	0.59196402
271.955	1.20800927
272.166	1.38529902
272.378	0.91674703
272.589	0.87711459
272.8	0.50791145
273.011	-0.0789266
273.222	-0.55436563
273.433	-0.69799201
273.644	-0.6312414
273.856	-0.61097241
274.067	-1.28419241
274.278	-1.62478172
274.489	-1.73351763
274.7	-1.50956267
274.911	-2.05473375
275.122	-2.1100663
275.333	-2.64064294
275.544	-3.16237895
275.755	-3.14391671
275.966	-3.20677369
276.177	-3.99061332
276.388	-4.40584568
276.599	-4.31803817
276.81	-3.42670588
277.021	-3.003272
277.232	-2.69744986
277.443	-2.7295316
277.654	-2.09144029
277.865	-2.14304157
278.076	-2.74473137
278.287	-2.27939822
278.497	-1.33443323
278.708	-1.13812664
278.919	-1.10200145
279.13	-1.41592071
279.341	-0.969924
279.552	0.21104551
279.763	0.40564374
279.973	0.79048602
280.184	1.18253663
280.395	1.17694947
280.606	1.87630784
280.817	1.65171265
281.027	1.47933117
281.238	0.8148494
281.449	0.10267539
281.66	0.30837261
281.87	0.58660546
282.081	-0.2947756
282.292	0.37716263
282.503	0.83222523
282.713	0.93289299
282.924	1.02223532
283.135	1.08095935
283.345	1.2346094
283.556	1.17266026
283.767	1.03467034
283.977	0.28921023
284.188	0.11641702
284.399	0.02418167
284.609	-0.96757466
284.82	-0.9978009
285.03	-0.93940052
285.241	-0.18794166
285.451	-0.94544211
285.662	-0.41716202
285.873	0.00422244
286.083	0.57765291
286.294	0.67889583
286.504	0.9656011
286.715	0.39218916
286.925	1.41173607
287.136	1.05354952
287.346	0.78190761
287.557	0.59265829
287.767	0.07769302
287.978	0.43699927
288.188	0.74038099
288.399	0.86159684
288.609	1.75521093
288.819	1.6904465
289.03	1.89790207
289.24	2.13132201
289.451	2.04368502
289.661	2.05807877
289.871	2.78144522
290.082	2.8980853
290.292	2.90212055
290.502	2.77966272
290.713	2.72373222
290.923	2.56414375
291.133	3.09006563
291.344	2.72973201
291.554	2.46794728
291.764	2.78662823
291.974	2.85722295
292.185	3.12887048
292.395	2.99812658
292.605	2.99727175
292.815	3.04064384
293.026	2.58877705
293.236	2.88370885
293.446	3.21273642
293.656	2.97591909
293.866	2.9009716
294.077	2.78150895
294.287	2.58462175
294.497	2.44612249
294.707	2.35787957
294.917	2.29846769
295.127	2.44188488
295.337	2.61357993
295.548	2.45090735
295.758	2.39004743
295.968	2.59664256
296.178	2.46220878
296.388	2.66068223
296.598	2.70627366
296.808	2.8240937
297.018	2.76184077
297.228	2.91891738
297.438	2.95786372
297.648	3.04712456
297.858	3.16856152
298.068	3.17627758
298.278	3.22129109
298.488	3.29585492
298.698	3.43400519
298.908	3.47995191
299.118	3.50639106
299.328	3.56484176
299.538	3.57990819
299.748	3.57280834
299.957	3.59623206
300.167	3.61673811
300.377	3.56832418
300.587	3.60520538
300.797	3.54419691
301.007	3.55693821
301.217	3.59872916
301.426	3.62939791
301.636	3.58070413
301.846	3.55222757
302.056	3.53931956
302.266	3.52696732
302.475	3.5597781
302.685	3.56773664
302.895	3.58075472
303.105	3.55689343
303.314	3.5716223
303.524	3.56029408
303.734	3.55842154
303.944	3.537587
304.153	3.53177721
304.363	3.5261351
304.573	3.52421785
304.782	3.54981849
304.992	3.56224753
305.202	3.56850727
305.411	3.56694252
305.621	3.55451643
305.831	3.55912986
306.04	3.56395846
306.25	3.58541023
306.459	3.57903731
306.669	3.59815402
306.878	3.60923195
307.088	3.61589336
307.298	3.61064928
307.507	3.60923275
307.717	3.60557656
307.926	3.61229743
308.136	3.61279858
308.345	3.62125704
308.555	3.63131894
308.764	3.63772779
308.974	3.6393626
309.183	3.63979427
309.392	3.63793492
309.602	3.64333799
309.811	3.65796074
310.021	3.64857668
310.23	3.65479175
310.44	3.66376505
310.649	3.66511145
310.858	3.67318469
311.068	3.6579889
311.277	3.65756494
311.486	3.66562871
311.696	3.67129481
311.905	3.68087147
312.114	3.68789405
312.324	3.69670272
312.533	3.7005839
312.742	3.70442822
312.952	3.70935779
313.161	3.71760316
313.37	3.72322779
313.579	3.73069261
313.789	3.72852528
313.998	3.73281785
314.207	3.73674097
314.416	3.7505513
314.625	3.74983808
314.835	3.75116992
315.044	3.7585166
315.253	3.76666887
315.462	3.76470628
315.671	3.77298044
315.88	3.77440813
316.09	3.77301443
316.299	3.77465806
316.508	3.77188141
316.717	3.77428941
316.926	3.78276623
317.135	3.78129726
317.344	3.78595211
317.553	3.79063787
317.762	3.79597555
317.971	3.79662075
318.18	3.80938052
318.389	3.81530631
318.598	3.80905988
318.807	3.81890659
319.016	3.81947519
319.225	3.82315905
319.434	3.81971999
319.643	3.81469016
319.852	3.82498685
320.061	3.82490619
320.27	3.82402734
320.479	3.82787603
320.688	3.82802415
320.897	3.83580906
321.105	3.83815568
321.314	3.83720377
321.523	3.84771254
321.732	3.84748317
321.941	3.85434084
322.15	3.8586092
322.359	3.86284367
322.567	3.86448187
322.776	3.86618926
322.985	3.87354678
323.194	3.87247905
323.403	3.87925593
323.611	3.88123619
323.82	3.88964192
324.029	3.89477076
324.237	3.89729068
324.446	3.89819665
324.655	3.90793812
324.864	3.91000664
325.072	3.91386817
325.281	3.91258942
325.49	3.918984
325.698	3.9204509
325.907	3.92455719
326.116	3.92872654
326.324	3.92661286
326.533	3.92925136
326.741	3.93348183
326.95	3.93625988
327.159	3.94165482
327.367	3.94615032
327.576	3.94807481
327.784	3.94672212
327.993	3.94853958
328.201	3.95071176
328.41	3.95469324
328.618	3.96015074
328.827	3.97103825
329.035	3.97276857
329.244	3.97992099
329.452	3.98600598
329.661	3.99873972
329.869	4.0006324
330.078	4.00585556
330.286	4.01034712
330.495	4.01837302
330.703	4.0248549
330.911	4.02890154
331.12	4.03216579
331.328	4.0388971
331.537	4.04169523
331.745	4.04655888
331.953	4.05412998
332.162	4.06366891
332.37	4.07348864
332.578	4.07887824
332.787	4.08582182
332.995	4.09426753
333.203	4.09526706
333.411	4.09657656
333.62	4.10098995
333.828	4.10841864
334.036	4.1080807
334.244	4.1111616
334.453	4.11720167
334.661	4.11996453
334.869	4.12088201
335.077	4.1267002
335.285	4.1315716
335.494	4.13663541
335.702	4.14455083
335.91	4.1496646
336.118	4.15175435
336.326	4.15710481
336.534	4.16343161
336.742	4.16445927
336.951	4.16898554
337.159	4.17057252
337.367	4.17345205
337.575	4.17942177
337.783	4.18424936
337.991	4.18940346
338.199	4.19172467
338.407	4.19891873
338.615	4.20772844
338.823	4.21199342
339.031	4.21181378
339.239	4.21997432
339.447	4.22793828
339.655	4.23061189
339.863	4.2370079
340.071	4.23535182
340.279	4.24160393
340.487	4.24901384
340.695	4.25010782
340.903	4.2520345
341.11	4.25706905
341.318	4.25977624
341.526	4.26480769
341.734	4.26705776
341.942	4.27046535
342.15	4.27910543
342.358	4.28376129
342.565	4.29209327
342.773	4.2942018
342.981	4.29737196
343.189	4.30422867
343.397	4.31366235
343.604	4.31896464
343.812	4.32117803
344.02	4.3277685
344.228	4.33088382
344.435	4.33707895
344.643	4.33859216
344.851	4.3428785
345.058	4.35106271
345.266	4.35799583
345.474	4.36572035
345.681	4.37240874
345.889	4.37613511
346.097	4.38117744
346.304	4.38281515
346.512	4.38820812
346.72	4.39579871
346.927	4.39715998
347.135	4.40154888
347.342	4.404051
347.55	4.4079367
347.758	4.4151104
347.965	4.41799792
348.173	4.42098775
348.38	4.43082654
348.588	4.43792777
348.795	4.44402125
349.003	4.45064684
349.21	4.45345543
349.418	4.45765761
349.625	4.45624749
349.833	4.45890372
350.04	4.46433892
350.247	4.47364552
350.455	4.48044794
350.662	4.48909793
350.87	4.49511116
351.077	4.49937392
351.284	4.50417333
351.492	4.51232663
351.699	4.51991638
351.906	4.52523029
352.114	4.52601065
352.321	4.53247146
352.528	4.53316308
352.736	4.53477432
352.943	4.54133585
353.15	4.54429326
353.358	4.5491479
353.565	4.55473614
353.772	4.55957118
353.979	4.57195927
354.187	4.57901016
354.394	4.58247601
354.601	4.58743621
354.808	4.58945276
355.015	4.59408161
355.223	4.59605954
355.43	4.59764705
355.637	4.6066513
355.844	4.61139284
356.051	4.61786404
356.258	4.62455301
356.465	4.63476946
356.673	4.64023198
356.88	4.65221382
357.087	4.65709188
357.294	4.66039788
357.501	4.66420136
357.708	4.67307764
357.915	4.68119234
358.122	4.68916203
358.329	4.6922741
358.536	4.69844371
358.743	4.70259042
358.95	4.70626734
359.157	4.71176345
359.364	4.71719259
359.571	4.72248604
359.778	4.73004394
359.985	4.73094114
360.192	4.73912795
360.399	4.74478095
360.606	4.75098619
360.812	4.75453194
361.019	4.75780734
361.226	4.76082028
361.433	4.76522915
361.64	4.76977616
361.847	4.77600602
362.054	4.77658363
362.26	4.7812525
362.467	4.78356931
362.674	4.78880971
362.881	4.79155976
363.088	4.7976947
363.294	4.80215785
363.501	4.80732313
363.708	4.81148577
363.915	4.8181644
364.121	4.82299615
364.328	4.82843973
364.535	4.82949687
364.741	4.83341966
364.948	4.83621953
365.155	4.84074981
365.361	4.84401275
365.568	4.85132158
365.775	4.86038468
365.981	4.86616092
366.188	4.87064616
366.395	4.87881823
366.601	4.88387201
366.808	4.88794695
367.014	4.89503428
367.221	4.90223838
367.427	4.91009659
367.634	4.91780438
367.84	4.92576458
368.047	4.9344379
368.254	4.94522516
368.46	4.95067328
368.667	4.95624841
368.873	4.96686974
369.079	4.97501752
369.286	4.98238378
369.492	4.99176085
369.699	5.00239292
369.905	5.00928259
370.112	5.01545529
370.318	5.02386002
370.524	5.03664341
370.731	5.04469247
370.937	5.05483691
371.144	5.06687931
371.35	5.07514866
371.556	5.08579529
371.763	5.09394125
371.969	5.1035406
372.175	5.1129872
372.381	5.11723156
372.588	5.12130503
372.794	5.12957374
373	5.14131927
373.206	5.14734707
373.413	5.15646942
373.619	5.16396496
373.825	5.17003431
374.031	5.17543093
374.238	5.18182082
374.444	5.1874117
374.65	5.19659576
374.856	5.2016046
375.062	5.21229998
375.268	5.21784154
375.475	5.22554023
375.681	5.23282297
375.887	5.23727162
376.093	5.24866361
376.299	5.25244051
376.505	5.26050239
376.711	5.27429746
376.917	5.28350619
377.123	5.29203343
377.329	5.30537222
377.535	5.31515754
377.741	5.32641638
377.947	5.33643125
378.153	5.34459254
378.359	5.35903565
378.565	5.37098977
378.771	5.38466305
378.977	5.39386652
379.183	5.40412496
379.389	5.41189887
379.595	5.42271682
379.801	5.43436068
380.007	5.4450716
380.213	5.45695688
380.418	5.4624409
380.624	5.48113684
380.83	5.48997061
381.036	5.50158346
381.242	5.50891155
381.448	5.52233072
381.653	5.52315567
381.859	5.53532055
382.065	5.54195433
382.271	5.55195336
382.476	5.56491794
382.682	5.5745023
382.888	5.58596103
383.094	5.59335143
383.299	5.60160621
383.505	5.61232313
383.711	5.62302675
383.916	5.63123539
384.122	5.64038761
384.328	5.64741615
